#Acq. time (s)=	30
#Accumulations=	2
#Range (cm-¹)=	100...4000
#Windows=	1
#Auto scanning=	Off
#Autofocus=	Off
#Macrospot=	Off
#AutoExposure=	Off
#Spike filter=	Multiple accum.
#Delay time (s)=	2
#Binning=	1
#Readout mode=	Signal
#DeNoise=	Standard
#ICS correction=	On
#Dark correction=	Off
#Inst. Process=	Off
#Detector Gain=	Best Dynamic
#Detector ADC=	50 kHz HS
#Detector temperature (°C)=	-60.09
#Instrument=	LabRAM HR Evol
#Detector=	SIN-EM FIVIS
#Objective=	x50_VIS_LWD
#Grating=	150 (500nm)
#ND Filter=	100%
#Laser=	633nm_Edge
#Hole=	30.0125
#Temperature=	0
#Range=	Visible
#StageXY=	75x50mm Scan+
#StageZ=	Z motor
#X (µm)=	0
#Y (µm)=	0
#Z (µm)=	58.4
#Full time(mm:ss)=	1:04
#Project=	21_02_17
#Sample=	BU19w
#Site=	
#Title=	BU19w-Area11-augelite_overBrt_150 (500nm)_633nm_Edge_100%_x50_VIS_LWD_H30um_30sX2
#Remark=	
#Date=	17.02.2021 10:31
#Acquired=	17.02.2021 10:31:38
#Data Range:Extract=	01.07.2021 19:23:36
#Base:Fit=	01.07.2021 19:24:15
#Base:Fit=	01.07.2021 19:24:39
#Base:Fit=	01.07.2021 19:24:47
#Base:Sub=	01.07.2021 19:24:50
100.724	-0.858856
103.982	10.9622
107.24	4.54958
110.497	3.66035
113.751	0.741791
117.005	5.78055
120.256	20.0056
123.507	49.7959
126.756	122.728
130.005	179.998
133.251	171.29
136.497	123.151
139.74	79.9872
142.982	67.5971
146.224	72.3848
149.463	90.6464
152.702	136.304
155.939	217.295
159.175	358.97
162.409	526.951
165.643	737.469
168.874	794.471
172.105	644.566
175.334	415.747
178.561	276.286
181.788	181.375
185.013	134.761
188.237	100.823
191.459	77.7668
194.679	62.3869
197.9	47.051
201.118	37.7724
204.336	34.7886
207.551	31.3149
210.765	32.9573
213.979	40.9648
217.19	56.6592
220.4	83.6477
223.61	124.68
226.817	209.52
230.024	317.634
233.229	200.153
236.432	93.0673
239.635	53.1522
242.836	51.9974
246.035	76.4907
249.233	139.445
252.431	274.952
255.627	422.137
258.821	270.746
262.015	126.495
265.206	58.049
268.397	25.3008
271.587	7.10611
274.774	4.52057
277.96	-0.211655
281.145	-0.0660553
284.33	0.685196
287.513	2.68375
290.694	6.08739
293.873	7.05991
297.053	7.40182
300.23	7.50793
303.406	7.99327
306.58	6.03618
309.755	3.92529
312.927	3.67804
316.097	2.76953
319.266	2.30037
322.434	2.66632
325.602	3.13531
328.768	5.27489
331.932	11.6046
335.095	15.2692
338.256	21.1185
341.418	26.2059
344.577	36.3477
347.734	50.8734
350.89	71.4904
354.045	104.475
357.199	89.883
360.353	84.5468
363.504	94.8417
366.654	125.191
369.803	208.259
372.95	270.842
376.096	189.229
379.241	116.551
382.384	77.6627
385.528	51.187
388.669	34.7599
391.808	26.3254
394.947	26.0457
398.084	32.4017
401.219	38.6889
404.354	59.3219
407.487	81.3061
410.619	106.162
413.75	127.407
416.879	145.665
420.007	152.695
423.135	144.566
426.261	128.348
429.385	111.975
432.508	97.7013
435.63	88.8237
438.751	95.0398
441.87	103.774
444.988	115.331
448.105	126.107
451.22	139.752
454.334	147.55
457.447	157.902
460.559	151.882
463.669	158.219
466.778	167.658
469.886	184.107
472.993	155.993
476.098	126.974
479.202	99.2636
482.303	75.7937
485.405	62.1125
488.505	50.5485
491.604	43.6421
494.702	39.7775
497.799	38.9056
500.894	42.4148
503.988	50.4437
507.081	62.4288
510.173	75.0024
513.263	99.9033
516.352	131.36
519.44	164.864
522.525	200.432
525.61	234.034
528.694	272.369
531.777	279.943
534.859	264.938
537.939	249.397
541.018	234.962
544.096	217.3
547.171	197.994
550.246	212.422
553.32	223.577
556.393	238.079
559.465	252.583
562.535	265.446
565.603	275.142
568.671	278.316
571.738	263.54
574.803	245.09
577.867	227.432
580.929	199.978
583.991	171.906
587.051	143.354
590.111	114.226
593.167	90.2664
596.224	71.9261
599.28	63.8355
602.334	61.7908
605.387	71.0767
608.438	82.1958
611.489	99.4674
614.538	121.667
617.585	142.734
620.632	163.657
623.678	186.595
626.722	222.82
629.764	326.452
632.807	469.438
635.847	710.41
638.886	919.686
641.924	837.944
644.962	556.799
647.998	363.434
651.031	233.623
654.065	148.088
657.097	113.021
660.127	91.4926
663.157	75.2117
666.184	61.6642
669.212	50.3551
672.238	40.2323
675.262	32.5196
678.286	23.5558
681.309	16.3031
684.329	11.1931
687.349	7.54825
690.367	5.27228
693.385	4.04926
696.401	3.79251
699.415	4.43384
702.43	5.3622
705.441	6.52583
708.453	8.0002
711.464	9.5401
714.472	11.6215
717.48	13.4892
720.486	14.9311
723.492	16.0483
726.495	16.8401
729.499	17.1703
732.5	16.8985
735.501	16.3795
738.501	15.6767
741.498	16.0845
744.495	14.5246
747.49	12.7357
750.485	10.7385
753.478	8.6483
756.471	6.79286
759.461	4.92273
762.451	2.09299
765.439	-0.248306
768.426	-1.063
771.413	-0.769974
774.397	0.352066
777.381	1.97673
780.363	3.3421
783.345	4.37245
786.325	5.33536
789.304	8.23914
792.281	9.18709
795.257	9.87746
798.234	10.1981
801.207	9.9933
804.181	9.03084
807.152	7.8716
810.124	6.64046
813.092	5.65677
816.06	4.77306
819.028	4.17456
821.993	4.14412
824.958	4.85938
827.922	6.44063
830.884	9.10028
833.846	12.8884
836.805	16.5099
839.764	22.4068
842.722	30.8616
845.678	38.9477
848.633	48.2893
851.588	58.9023
854.541	68.7603
857.492	78.3564
860.442	86.6686
863.392	87.0928
866.34	82.3115
869.287	74.3392
872.234	61.7452
875.178	51.9901
878.121	49.6423
881.063	45.5425
884.005	42.8543
886.945	42.5352
889.884	43.8031
892.822	45.9361
895.759	49.7873
898.694	51.6113
901.628	52.3871
904.56	48.0647
907.493	41.8502
910.424	34.393
913.353	26.0867
916.281	18.0306
919.21	9.84756
922.135	6.67203
925.06	7.26338
927.984	8.07506
930.906	9.32645
933.827	10.7707
936.749	11.7781
939.668	12.1218
942.585	11.3282
945.502	10.5558
948.418	10.391
951.332	10.9025
954.245	10.532
957.159	8.78024
960.07	9.17044
962.979	9.40573
965.888	9.49284
968.796	9.62422
971.702	10.005
974.607	10.5516
977.511	11.5889
980.414	12.7071
983.317	13.8576
986.218	15.2282
989.118	11.6725
992.016	13.6018
994.913	16.4398
997.809	19.4043
1000.7	23.5136
1003.6	30.1325
1006.49	41.3786
1009.38	49.2103
1012.27	55.5079
1015.16	60.5624
1018.05	63.8885
1020.94	66.2586
1023.82	67.6029
1026.71	54.6101
1029.59	50.2611
1032.48	45.9939
1035.36	41.6124
1038.24	40.0912
1041.12	37.6351
1043.99	35.8989
1046.87	37.8096
1049.75	48.0224
1052.62	49.6352
1055.5	54.4823
1058.37	62.9015
1061.24	70.3928
1064.11	83.5609
1066.98	85.541
1069.85	82.3574
1072.71	78.1296
1075.58	71.3909
1078.44	68.1336
1081.31	68.1716
1084.17	73.3317
1087.03	77.132
1089.89	92.1868
1092.75	107.918
1095.61	128.332
1098.46	159.108
1101.32	201.991
1104.17	253.343
1107.03	344.211
1109.88	431.9
1112.73	505.981
1115.58	499.709
1118.43	401.574
1121.28	296.233
1124.12	208.941
1126.97	161.952
1129.81	127.329
1132.66	104.498
1135.5	90.2449
1138.34	82.9811
1141.18	77.471
1144.02	79.5125
1146.86	77.3736
1149.69	83.8767
1152.53	93.7766
1155.36	106.181
1158.2	118.145
1161.03	126.206
1163.86	132.37
1166.69	125.762
1169.52	116.221
1172.35	102.781
1175.17	86.1422
1178	69.5804
1180.83	54.9568
1183.65	43.5206
1186.47	35.4034
1189.29	31.0434
1192.11	28.1373
1194.93	25.8834
1197.75	23.988
1200.57	21.3031
1203.38	18.3517
1206.2	16.4962
1209.01	15.2406
1211.82	14.5906
1214.63	15.1264
1217.44	15.2186
1220.25	14.3893
1223.06	13.4097
1225.87	12.515
1228.68	11.7603
1231.48	11.3634
1234.28	11.0229
1237.09	10.7649
1239.89	10.4631
1242.69	9.70154
1245.49	9.00826
1248.29	8.6003
1251.08	8.48439
1253.88	8.41125
1256.68	8.06155
1259.47	7.56946
1262.26	6.99442
1265.05	6.26273
1267.85	5.1976
1270.63	4.19765
1273.42	3.28139
1276.21	2.62128
1279	2.37433
1281.78	3.27739
1284.57	4.34076
1287.35	5.42648
1290.13	6.34755
1292.91	7.0629
1295.69	7.43208
1298.47	7.58691
1301.25	7.60144
1304.03	7.4108
1306.8	7.05673
1309.58	6.52594
1312.35	5.84544
1315.13	5.03134
1317.9	4.10477
1320.67	2.95508
1323.44	1.74115
1326.2	0.366791
1328.97	0.295822
1331.74	0.450211
1334.5	0.66861
1337.27	0.966675
1340.03	1.29112
1342.79	1.45772
1345.55	1.61856
1348.31	1.76248
1351.07	1.84201
1353.83	1.91487
1356.58	2.02084
1359.34	2.00536
1362.1	2.02168
1364.85	1.92239
1367.6	1.79652
1370.35	1.6144
1373.1	1.3577
1375.85	1.12933
1378.6	0.829041
1381.35	0.569122
1384.09	0.426895
1386.84	0.264694
1389.58	0.173065
1392.32	0.510986
1395.07	0.462067
1397.81	-0.536484
1400.55	-0.414856
1403.29	-0.240646
1406.02	0.0375671
1408.76	0.551758
1411.5	1.26207
1414.23	1.8698
1416.96	1.53201
1419.7	0.785904
1422.43	0.933411
1425.16	1.08263
1427.89	1.24129
1430.61	1.34644
1433.34	1.18323
1436.07	0.927139
1438.79	0.389999
1441.52	-0.385345
1444.24	-1.24791
1446.96	-2.02831
1449.68	-1.65021
1452.4	-1.48448
1455.12	0.178329
1457.84	0.526184
1460.56	0.924911
1463.27	1.14314
1465.99	0.968246
1468.7	0.98468
1471.41	1.22614
1474.12	1.84543
1476.84	2.56482
1479.55	3.3304
1482.25	4.00099
1484.96	4.76326
1487.67	5.53445
1490.37	6.11775
1493.08	6.52684
1495.78	6.45654
1498.48	6.39827
1501.18	6.36081
1503.89	5.86722
1506.58	5.28351
1509.28	4.64854
1511.98	3.80128
1514.68	3.1106
1517.37	2.74802
1520.07	2.56113
1522.76	2.35989
1525.45	2.32924
1528.14	2.27927
1530.83	2.17413
1533.52	2.117
1536.21	2.09874
1538.9	1.87263
1541.58	1.55745
1544.27	1.29219
1546.95	0.790817
1549.63	0.373169
1552.31	0.145493
1555	-0.0661163
1557.68	-0.491287
1560.35	-0.157883
1563.03	0.30069
1565.71	0.78949
1568.39	1.38519
1571.06	1.9335
1573.73	2.47763
1576.41	2.99759
1579.08	3.52682
1581.75	4.00673
1584.42	4.31036
1587.09	4.70424
1589.76	4.98407
1592.42	5.28429
1595.09	5.56818
1597.75	5.82655
1600.42	6.06056
1603.08	6.27357
1605.74	6.45473
1608.4	6.63084
1611.06	6.76857
1613.72	6.91512
1616.38	7.02042
1619.03	7.15118
1621.69	7.26158
1624.34	7.44252
1627	7.46826
1629.65	7.48108
1632.3	7.4415
1634.95	7.407
1637.6	7.33017
1640.25	7.24547
1642.9	7.13348
1645.54	6.99843
1648.19	6.85445
1650.83	6.68391
1653.48	6.51205
1656.12	6.32867
1658.76	6.13197
1661.4	5.93883
1664.04	5.71948
1666.68	5.5865
1669.32	5.4046
1671.96	5.2019
1674.59	5.02527
1677.23	4.82655
1679.86	4.66487
1682.49	4.48352
1685.12	4.34471
1687.75	4.22885
1690.39	4.06963
1693.01	3.95557
1695.64	3.8119
1698.27	3.6705
1700.89	3.52164
1703.52	3.36366
1706.14	3.23782
1708.77	3.10541
1711.39	3.01204
1714.01	2.95811
1716.63	2.84723
1719.25	2.57697
1721.86	2.80048
1724.48	3.26135
1727.1	4.05421
1729.71	4.69662
1732.33	5.36501
1734.94	6.10954
1737.55	6.49612
1740.16	6.78954
1742.77	6.97122
1745.38	7.1181
1747.99	7.19666
1750.6	7.23407
1753.2	7.21835
1755.81	7.12099
1758.41	6.95244
1761.02	6.91147
1763.62	6.84515
1766.22	6.77107
1768.82	6.69009
1771.42	6.59695
1774.02	6.52972
1776.62	6.65044
1779.21	6.65228
1781.81	6.53268
1784.4	6.43233
1787	6.25902
1789.59	6.05859
1792.18	5.63293
1794.77	5.27844
1797.36	4.92012
1799.95	4.52452
1802.54	4.12535
1805.12	3.70786
1807.71	3.29878
1810.3	2.92085
1812.88	2.57617
1815.46	2.26393
1818.05	2.22144
1820.63	2.40186
1823.21	3.30231
1825.79	4.27231
1828.36	5.15663
1830.94	5.6584
1833.52	6.02591
1836.09	6.26517
1838.67	6.36658
1841.24	6.44504
1843.81	6.53894
1846.38	6.58546
1848.95	6.29738
1851.52	5.70731
1854.09	5.213
1856.66	4.90205
1859.23	4.68355
1861.79	4.61258
1864.36	4.66147
1866.92	4.8382
1869.48	5.51343
1872.05	6.27379
1874.61	7.18512
1877.17	7.23674
1879.73	7.10336
1882.28	6.80293
1884.84	6.37553
1887.4	5.93396
1889.95	5.61353
1892.51	5.43474
1895.06	5.22128
1897.61	5.12398
1900.17	5.07404
1902.72	5.14699
1905.27	5.28906
1907.81	5.59564
1910.36	6.04019
1912.91	6.90736
1915.45	7.70386
1918	8.41805
1920.54	8.78487
1923.09	8.85426
1925.63	8.32884
1928.17	7.61082
1930.71	6.79057
1933.25	5.92358
1935.79	5.20934
1938.33	4.53722
1940.86	3.90591
1943.4	3.32278
1945.93	2.80594
1948.47	2.32831
1951	3.83203
1953.53	-4.68315
1956.06	-1.70871
1958.59	3.96191
1961.12	8.18671
1963.65	9.21596
1966.18	9.28903
1968.7	9.29019
1971.23	9.25014
1973.75	9.15385
1976.28	9.07677
1978.8	8.96216
1981.32	8.89813
1983.84	8.77452
1986.36	8.72685
1988.88	8.70488
1991.4	8.80234
1993.91	8.92772
1996.43	9.12621
1998.94	9.28386
2001.46	9.52496
2003.97	9.73215
2006.48	9.97244
2009	10.1968
2011.51	10.4099
2014.02	10.6235
2016.52	10.8026
2019.03	10.9806
2021.54	11.1163
2024.05	11.2547
2026.55	11.3358
2029.05	11.4282
2031.56	11.1994
2034.06	11.0999
2036.56	10.9193
2039.06	10.6741
2041.56	10.4049
2044.06	10.1415
2046.56	10.6706
2049.05	10.3079
2051.55	9.91478
2054.04	9.10432
2056.54	7.98466
2059.03	5.83897
2061.52	4.60155
2064.01	3.66513
2066.51	3.05074
2068.99	2.57266
2071.48	2.16376
2073.97	1.86617
2076.46	1.81483
2078.94	2.04091
2081.43	2.66508
2083.91	3.83006
2086.4	5.26421
2088.88	6.69676
2091.36	7.50932
2093.84	7.84869
2096.32	7.79135
2098.8	6.86842
2101.28	6.03339
2103.75	5.48941
2106.23	4.92163
2108.7	4.29019
2111.18	3.65723
2113.65	2.97482
2116.12	2.26674
2118.59	1.37738
2121.06	0.396423
2123.53	-0.579712
2126	-0.033371
2128.47	0.72995
2130.94	1.67316
2133.4	2.35291
2135.87	2.8569
2138.33	3.35518
2140.79	3.74178
2143.26	4.07251
2145.72	4.27821
2148.18	4.47801
2150.64	4.61211
2153.1	4.67534
2155.56	4.70291
2158.01	4.73747
2160.47	4.68292
2162.92	4.5898
2165.38	4.49066
2167.83	4.37112
2170.28	4.27234
2172.74	4.15555
2175.19	4.07567
2177.64	4.04114
2180.09	3.98804
2182.53	3.92789
2184.98	3.83563
2187.43	3.87413
2189.87	4.16162
2192.32	4.44553
2194.76	4.86555
2197.2	5.32683
2199.65	5.73262
2202.09	6.10521
2204.53	6.44278
2206.97	6.76057
2209.4	7.09296
2211.84	7.06627
2214.28	6.56047
2216.71	6.1304
2219.15	5.67236
2221.58	5.00548
2224.02	4.62479
2226.45	4.36203
2228.88	4.53979
2231.31	4.62422
2233.74	4.69025
2236.17	4.81462
2238.6	4.89543
2241.02	4.94691
2243.45	4.9969
2245.87	4.94051
2248.3	4.76614
2250.72	4.57607
2253.14	4.40778
2255.57	4.19279
2257.99	4.15697
2260.41	3.70111
2262.83	3.19795
2265.24	2.6911
2267.66	2.13127
2270.08	1.61504
2272.49	1.10594
2274.91	0.650497
2277.32	0.651428
2279.74	0.695404
2282.15	0.811844
2284.56	1.03777
2286.97	1.35072
2289.38	1.6376
2291.79	2.14337
2294.2	2.66275
2296.6	3.37381
2299.01	4.14401
2301.41	4.91881
2303.82	5.72115
2306.22	6.51456
2308.62	7.23509
2311.02	7.8517
2313.43	8.36929
2315.83	8.79138
2318.22	9.1848
2320.62	9.24919
2323.02	9.33775
2325.42	9.32786
2327.81	9.22479
2330.21	9.01772
2332.6	8.73416
2335	8.39407
2337.39	8.01596
2339.78	7.59669
2342.17	7.13882
2344.56	6.68217
2346.95	6.27917
2349.34	5.81485
2351.72	5.35362
2354.11	4.76618
2356.49	4.18825
2358.88	3.56802
2361.26	2.95964
2363.65	2.38629
2366.03	1.82993
2368.41	1.3503
2370.79	0.923851
2373.17	0.553001
2375.55	0.317604
2377.93	0.346771
2380.3	0.48185
2382.68	0.783684
2385.05	1.29305
2387.43	2.51925
2389.8	3.67872
2392.17	4.76817
2394.55	5.67145
2396.92	5.47189
2399.29	5.12228
2401.66	4.65478
2404.02	4.20032
2406.39	3.76733
2408.76	3.55424
2411.13	3.39326
2413.49	3.33627
2415.85	3.43224
2418.22	3.58337
2420.58	3.85521
2422.94	4.07917
2425.3	4.57677
2427.66	5.19644
2430.02	5.86388
2432.38	6.57882
2434.74	7.31876
2437.09	8.0563
2439.45	8.78582
2441.8	9.0902
2444.16	9.18503
2446.51	9.19232
2448.86	8.90472
2451.22	8.82519
2453.57	8.67805
2455.92	8.77892
2458.27	8.61267
2460.61	8.47823
2462.96	7.82668
2465.31	7.03984
2467.65	6.28787
2470	5.5397
2472.34	4.91037
2474.69	4.42352
2477.03	4.04586
2479.37	3.85864
2481.71	3.70396
2484.05	4.00573
2486.39	4.37733
2488.73	4.76989
2491.07	5.17986
2493.4	5.58187
2495.74	5.95361
2498.07	6.32683
2500.41	6.54616
2502.74	6.54202
2505.07	6.25006
2507.41	6.16713
2509.74	5.41588
2512.07	4.61687
2514.4	3.82587
2516.72	2.97736
2519.05	2.16741
2521.38	1.39317
2523.7	0.739128
2526.03	0.468666
2528.35	0.49173
2530.68	0.486122
2533	0.718742
2535.32	0.983597
2537.64	1.35564
2539.96	1.85192
2542.28	2.67152
2544.6	3.56268
2546.92	4.46318
2549.24	5.39264
2551.55	6.30454
2553.87	7.20517
2556.18	7.91384
2558.49	8.56234
2560.81	8.96497
2563.12	9.31807
2565.43	9.18286
2567.74	8.99078
2570.05	8.64294
2572.36	7.98109
2574.67	7.27119
2576.97	6.56631
2579.28	5.82001
2581.59	5.09148
2583.89	4.38212
2586.19	3.9369
2588.5	3.48397
2590.8	3.08812
2593.1	2.73861
2595.4	2.46539
2597.7	2.24713
2600	2.11781
2602.3	2.08588
2604.6	2.13277
2606.89	2.26752
2609.19	2.42339
2611.48	2.66338
2613.78	2.96069
2616.07	3.33941
2618.36	3.82576
2620.66	4.24546
2622.95	4.88796
2625.24	5.52823
2627.53	6.19728
2629.82	6.86035
2632.1	7.50195
2634.39	8.13839
2636.68	8.54751
2638.96	8.87024
2641.25	8.90911
2643.53	8.72569
2645.81	8.35899
2648.09	7.75922
2650.38	6.91891
2652.66	6.07688
2654.94	5.19332
2657.21	4.29806
2659.49	3.91566
2661.77	3.66123
2664.05	3.69642
2666.32	4.36465
2668.6	4.76141
2670.87	4.5837
2673.15	4.47279
2675.42	4.31306
2677.69	4.34301
2679.96	4.34199
2682.23	4.47855
2684.5	4.61156
2686.77	4.74387
2689.04	4.92037
2691.3	5.01658
2693.57	5.15636
2695.83	5.23374
2698.1	5.34747
2700.36	5.42482
2702.63	5.55087
2704.89	5.80598
2707.15	6.07594
2709.41	6.26554
2711.67	6.33706
2713.93	5.68075
2716.19	4.91711
2718.45	5.38426
2720.7	6.12333
2722.96	7.20673
2725.21	8.66925
2727.47	10.1279
2729.72	11.2094
2731.97	10.7523
2734.23	9.54131
2736.48	4.06821
2738.73	2.49348
2740.98	1.35183
2743.23	0.602524
2745.48	3.97288
2747.72	5.23702
2749.97	6.25709
2752.22	6.7589
2754.46	6.90694
2756.7	6.60387
2758.95	5.37029
2761.19	4.88212
2763.43	4.69444
2765.67	4.80325
2767.91	4.85741
2770.15	4.86311
2772.39	4.92888
2774.63	5.03961
2776.87	5.13664
2779.1	5.2611
2781.34	5.38198
2783.57	5.56998
2785.81	5.72613
2788.04	5.88203
2790.27	6.01538
2792.51	6.15559
2794.74	6.28536
2796.97	6.39202
2799.2	6.48463
2801.43	6.48988
2803.65	6.48728
2805.88	6.36031
2808.11	6.12942
2810.33	5.885
2812.56	5.37734
2814.78	4.84377
2817.01	4.20872
2819.23	3.45631
2821.45	2.08356
2823.67	0.760139
2825.89	-0.192612
2828.11	-1.00711
2830.33	-2.2823
2832.55	-2.66225
2834.76	-2.36414
2836.98	-1.73878
2839.2	-0.927498
2841.41	0.100273
2843.63	1.03899
2845.84	2.23508
2848.05	3.52371
2850.26	5.9275
2852.48	6.43145
2854.69	6.03407
2856.89	4.39326
2859.1	3.63186
2861.31	3.89136
2863.52	3.74715
2865.73	3.53736
2867.93	3.21058
2870.14	2.86488
2872.34	2.64296
2874.54	2.45872
2876.75	2.32758
2878.95	2.39408
2881.15	2.52726
2883.35	2.66284
2885.55	2.827
2887.75	2.97569
2889.95	3.22421
2892.14	3.57021
2894.34	3.88979
2896.54	4.2654
2898.73	4.63448
2900.93	5.13597
2903.12	5.46155
2905.31	5.75067
2907.5	5.83578
2909.7	5.67857
2911.89	5.44127
2914.08	5.04621
2916.27	4.70676
2918.45	4.37273
2920.64	4.05515
2922.83	3.88583
2925.01	3.69994
2927.2	3.46955
2929.38	3.26508
2931.57	3.08057
2933.75	2.92612
2935.93	2.80282
2938.12	2.74129
2940.3	2.71486
2942.48	2.69637
2944.66	2.74928
2946.84	2.82262
2949.01	2.94853
2951.19	3.13206
2953.37	3.34808
2955.54	3.60434
2957.72	3.92606
2959.89	4.32164
2962.06	4.76154
2964.24	5.17915
2966.41	5.54852
2968.58	5.86525
2970.75	5.54678
2972.92	5.43642
2975.09	5.13664
2977.26	4.66753
2979.43	4.11147
2981.59	3.47161
2983.76	2.79488
2985.92	2.16382
2988.09	1.86398
2990.25	1.42538
2992.42	1.10439
2994.58	0.734505
2996.74	0.260582
2998.9	-0.0646057
3001.06	-0.0467453
3003.22	1.59958
3005.38	2.20524
3007.54	2.40907
3009.69	2.35162
3011.85	1.56607
3014.01	0.621727
3016.16	-0.184875
3018.31	-0.320015
3020.47	-0.194977
3022.62	-0.0565567
3024.77	0.12941
3026.92	0.310432
3029.07	0.515961
3031.22	0.631737
3033.37	0.778122
3035.52	0.82563
3037.67	0.860977
3039.82	0.888206
3041.96	0.784088
3044.11	0.689758
3046.25	0.568031
3048.4	0.439713
3050.54	0.295677
3052.68	0.128387
3054.82	-0.00188446
3056.97	-0.105904
3059.11	-0.18763
3061.25	-0.203949
3063.38	-0.190193
3065.52	-0.110939
3067.66	0.170578
3069.8	0.653168
3071.93	1.10121
3074.07	2.06263
3076.2	4.20796
3078.34	5.85294
3080.47	7.01864
3082.6	7.50807
3084.73	7.77763
3086.86	7.16257
3088.99	6.38473
3091.12	5.51295
3093.25	4.57404
3095.38	3.88416
3097.51	3.575
3099.64	3.55327
3101.76	3.4684
3103.89	3.46724
3106.01	3.47254
3108.13	3.48541
3110.26	3.53375
3112.38	3.60767
3114.5	3.68605
3116.62	3.66875
3118.74	3.60943
3120.86	3.52688
3122.98	3.29771
3125.1	3.03374
3127.22	2.77402
3129.33	2.42382
3131.45	2.13528
3133.56	1.62873
3135.68	1.56033
3137.79	1.51578
3139.91	1.53532
3142.02	1.86752
3144.13	2.11948
3146.24	2.45924
3148.35	2.79327
3150.46	3.15397
3152.57	3.36144
3154.68	3.52753
3156.78	3.4803
3158.89	3.5371
3161	3.4509
3163.1	3.46249
3165.21	3.45571
3167.31	3.48821
3169.41	3.54102
3171.51	3.62882
3173.62	3.7817
3175.72	3.93862
3177.82	4.06856
3179.92	4.52697
3182.02	5.24237
3184.11	5.90601
3186.21	6.5564
3188.31	7.11792
3190.4	7.17139
3192.5	6.73313
3194.59	6.5572
3196.69	6.78764
3198.78	6.5883
3200.87	6.02862
3202.96	5.34074
3205.06	4.56833
3207.15	3.68048
3209.24	2.85001
3211.33	1.94352
3213.41	1.27961
3215.5	0.599892
3217.59	0.0407715
3219.67	-1.26763
3221.76	-0.332718
3223.84	0.92366
3225.93	2.48273
3228.01	4.0135
3230.09	5.53185
3232.18	6.88987
3234.26	7.90297
3236.34	8.65986
3238.42	8.83186
3240.5	8.69707
3242.58	7.25095
3244.65	5.92935
3246.73	4.69136
3248.81	3.86005
3250.88	3.06813
3252.96	2.76004
3255.03	2.63499
3257.11	2.59842
3259.18	2.72971
3261.25	2.87313
3263.32	3.06563
3265.39	3.12544
3267.46	3.30694
3269.53	3.45134
3271.6	3.68752
3273.67	3.88327
3275.74	4.16528
3277.8	4.33625
3279.87	4.57384
3281.94	4.72913
3284	4.90195
3286.06	4.96986
3288.13	5.38725
3290.19	5.76707
3292.25	6.35209
3294.31	7.02051
3296.37	7.80042
3298.43	8.70586
3300.49	9.51393
3302.55	10.2402
3304.61	11.0056
3306.67	11.8377
3308.72	12.5324
3310.78	13.1321
3312.83	13.7018
3314.89	14.2427
3316.94	14.7523
3319	15.2211
3321.05	15.6318
3323.1	16.03
3325.15	16.3705
3327.2	16.7019
3329.25	17.0291
3331.3	17.3254
3333.35	17.5628
3335.39	17.7948
3337.44	17.9936
3339.49	18.1743
3341.53	18.353
3343.58	18.5236
3345.62	18.7357
3347.67	18.9567
3349.71	19.1507
3351.75	19.3275
3353.79	19.5344
3355.83	19.756
3357.87	20.0355
3359.91	20.2597
3361.95	20.5159
3363.99	21.8568
3366.03	24.6666
3368.06	26.4601
3370.1	28.1643
3372.14	29.5511
3374.17	30.9561
3376.2	32.2855
3378.24	33.6568
3380.27	35.0464
3382.3	36.4897
3384.33	38.0364
3386.36	39.6303
3388.39	41.4576
3390.42	43.2299
3392.45	44.9054
3394.48	43.7051
3396.51	45.4743
3398.53	47.7682
3400.56	50.3165
3402.59	55.3923
3404.61	57.9689
3406.63	59.363
3408.66	60.4084
3410.68	61.6103
3412.7	63.1323
3414.72	64.9371
3416.74	67.1565
3418.76	69.7508
3420.78	72.8365
3422.8	76.3732
3424.82	80.3171
3426.84	84.6016
3428.85	89.3599
3430.87	94.4486
3432.88	100.043
3434.9	105.98
3436.91	112.247
3438.93	118.442
3440.94	127.318
3442.95	136.324
3444.96	144.352
3446.97	151.672
3448.98	157.927
3450.99	163.216
3453	173.021
3455.01	182.241
3457.02	192.33
3459.02	205.448
3461.03	222.075
3463.03	248.835
3465.04	297.71
3467.04	377.289
3469.05	417.534
3471.05	443.856
3473.05	423.385
3475.05	392.997
3477.05	354.179
3479.05	311.389
3481.05	277.628
3483.05	250.445
3485.05	229.067
3487.05	214.259
3489.04	202.557
3491.04	192.905
3493.04	188.176
3495.03	184.135
3497.03	181.362
3499.02	178.446
3501.01	174.911
3503	173.941
3505	172.559
3506.99	172.711
3508.98	172.091
3510.97	172.098
3512.96	174.305
3514.94	175.31
3516.93	178.62
3518.92	182.53
3520.9	184.593
3522.89	186.414
3524.88	189.784
3526.86	195.152
3528.84	202.193
3530.83	210.634
3532.81	226.096
3534.79	239.496
3536.77	250.93
3538.75	261.615
3540.73	271.773
3542.71	277.907
3544.69	282.906
3546.67	290.977
3548.65	291.044
3550.62	288.708
3552.6	277.162
3554.57	267.276
3556.55	252.447
3558.52	236.708
3560.5	219.962
3562.47	201.955
3564.44	183.126
3566.41	163.944
3568.38	145.953
3570.35	129.101
3572.32	113.894
3574.29	100.501
3576.26	88.7197
3578.23	81.089
3580.2	73.7625
3582.16	68.034
3584.13	62.9105
3586.09	58.2515
3588.06	54.2144
3590.02	50.7458
3591.98	47.7528
3593.95	45.3483
3595.91	43.1988
3597.87	41.2453
3599.83	39.482
3601.79	37.5351
3603.75	35.5733
3605.71	33.616
3607.67	31.6392
3609.62	29.4495
3611.58	27.4217
3613.54	26.0983
3615.49	25.2891
3617.45	24.8418
3619.4	24.6988
3621.36	24.9238
3623.31	25.4818
3625.26	25.9759
3627.21	26.2347
3629.16	25.132
3631.11	23.5591
3633.06	22.238
3635.01	21.3718
3636.96	20.9173
3638.91	20.0469
3640.86	19.099
3642.8	18.4958
3644.75	18.0199
3646.69	17.5873
3648.64	17.1918
3650.58	16.8028
3652.53	16.4032
3654.47	16.01
3656.41	15.6354
3658.35	15.2507
3660.3	14.7688
3662.24	14.221
3664.18	13.346
3666.11	12.3045
3668.05	11.2485
3669.99	10.1284
3671.93	9.06809
3673.86	8.01691
3675.8	7.02812
3677.74	6.12604
3679.67	5.41505
3681.6	5.25873
3683.54	5.14721
3685.47	5.22575
3687.4	5.49192
3689.34	5.86721
3691.27	6.33199
3693.2	7.36357
3695.13	8.43359
3697.06	9.44598
3698.98	9.03953
3700.91	9.01188
3702.84	9.85326
3704.77	9.46526
3706.69	9.14027
3708.62	8.8613
3710.54	7.66341
3712.47	6.16219
3714.39	4.6778
3716.31	3.33262
3718.24	2.6084
3720.16	2.02171
3722.08	1.6144
3724	1.53453
3725.92	1.44917
3727.84	1.88921
3729.76	2.87617
3731.67	3.9371
3733.59	5.04371
3735.51	6.07443
3737.42	6.26823
3739.34	6.28889
3741.25	5.33236
3743.17	5.23499
3745.08	5.47289
3747	5.89477
3748.91	6.20396
3750.82	6.88024
3752.73	7.40192
3754.64	6.97944
3756.55	6.55769
3758.46	6.10049
3760.37	5.67233
3762.28	5.3178
3764.19	4.97707
3766.09	4.75783
3768	4.62369
3769.9	4.50677
3771.81	4.42381
3773.71	4.50771
3775.62	4.65127
3777.52	4.84933
3779.42	5.04081
3781.33	5.27644
3783.23	5.54099
3785.13	5.78605
3787.03	6.03852
3788.93	6.41586
3790.83	6.80894
3792.72	7.19081
3794.62	7.5145
3796.52	7.78651
3798.42	7.7261
3800.31	7.62848
3802.21	6.74086
3804.1	5.92741
3806	5.13927
3807.89	4.04084
3809.78	2.94617
3811.68	1.95895
3813.57	1.20963
3815.46	0.501846
3817.35	-0.0221786
3819.24	-0.452698
3821.13	-0.784241
3823.02	-0.481506
3824.9	0.051178
3826.79	0.810898
3828.68	1.5648
3830.56	2.36668
3832.45	3.16434
3834.34	3.93577
3836.22	4.36362
3838.1	4.86131
3839.99	5.26506
3841.87	5.56389
3843.75	6.10041
3845.63	6.59492
3847.51	7.03307
3849.39	7.50365
3851.28	7.82624
3853.15	8.0638
3855.03	8.18269
3856.91	8.22665
3858.79	8.06609
3860.66	7.5789
3862.54	7.02093
3864.42	6.29297
3866.29	5.28999
3868.16	4.32693
3870.04	3.36979
3871.91	2.51777
3873.78	2.32163
3875.66	2.23946
3877.53	2.46737
3879.4	3.15895
3881.27	3.88847
3883.14	4.99512
3885.01	6.11958
3886.88	6.40805
3888.74	5.63402
3890.61	5.10059
3892.48	4.83014
3894.34	4.56026
3896.21	4.40832
3898.07	4.41963
3899.94	4.57581
3901.8	4.93517
3903.66	5.76411
3905.53	6.36468
3907.39	5.58606
3909.25	5.0172
3911.11	4.6876
3912.97	4.24332
3914.83	3.91096
3916.69	3.56536
3918.55	3.39903
3920.4	3.39269
3922.26	4.86156
3924.12	5.102
3925.97	5.0584
3927.83	4.30868
3929.68	3.5497
3931.54	2.79185
3933.39	2.24316
3935.24	1.85454
3937.1	1.59743
3938.95	1.55772
3940.8	1.70579
3942.65	1.93979
3944.5	2.32002
3946.35	2.86964
3948.2	3.57459
3950.05	4.50098
3951.9	5.45187
3953.74	6.39758
3955.59	7.47482
3957.44	8.02567
3959.28	7.89818
3961.13	7.64362
3962.97	7.25718
3964.81	6.83192
3966.66	6.36347
3968.5	6.02223
3970.34	5.60677
3972.18	5.22264
3974.02	4.81096
3975.86	4.43376
3977.7	4.03306
3979.54	3.70441
3981.38	3.33007
3983.22	3.05645
3985.06	2.76328
3986.89	2.44269
3988.73	2.13213
3990.56	1.80698
3992.4	1.43293
3994.23	1.08544
3996.07	0.663628
3997.9	0.0093689
3999.73	-0.492111
