#Acq. time (s)=	10
#Accumulations=	2
#Range (cm-¹)=	100...4000
#Windows=	1
#Auto scanning=	Off
#Autofocus=	Off
#Macrospot=	Off
#AutoExposure=	Off
#Spike filter=	Multiple accum.
#Delay time (s)=	1
#Binning=	1
#Readout mode=	Signal
#DeNoise=	Standard
#ICS correction=	On
#Dark correction=	Off
#Inst. Process=	Off
#Detector Gain=	Best Dynamic
#Detector ADC=	50 kHz HS
#Detector temperature (°C)=	-60.09
#Instrument=	LabRAM HR Evol
#Detector=	SIN-EM FIVIS
#Objective=	x50_VIS_LWD
#Grating=	150 (500nm)
#ND Filter=	50%
#Laser=	633nm_Edge
#Hole=	100.021
#Temperature=	0
#Range=	Visible
#StageXY=	75x50mm Scan+
#StageZ=	Z motor
#X (µm)=	0
#Y (µm)=	0
#Z (µm)=	-149.8
#Full time(s)=	24
#Project=	20_10_20
#Sample=	BU18FA02a
#Site=	
#Title=	BU02a-Area1-rutile-reflective_prism2_150 (500nm)_633nm_Edge_50%_x50_VIS_LWD_H100um_10sX2
#Remark=	
#Date=	20.10.2020 16:41
#Acquired=	20.10.2020 16:41:33
100.676	6647.79
103.935	6748.58
107.192	6826.51
110.449	6895.38
113.703	6943.89
116.957	6988.29
120.208	7030.27
123.459	7063.15
126.708	7090.93
129.957	7113.86
133.203	7119.06
136.449	7111.64
139.692	7083.69
142.935	7036.87
146.176	6959.76
149.416	6887.51
152.654	6824.56
155.892	6780.19
159.127	6767.2
162.363	6817.19
165.595	6925.54
168.826	7076.81
172.058	7265.26
175.286	7483.73
178.515	7724.98
181.74	7978.69
184.966	8214.22
188.19	8521.22
191.411	8865.35
194.633	9211.55
197.852	9557.5
201.072	9891.46
204.288	10213
207.503	10507.9
210.719	10741.5
213.931	10961.1
217.142	11155.1
220.354	11312.3
223.562	11432.8
226.77	11515.9
229.977	11587.6
233.181	11619.5
236.386	11611.6
239.588	11561.3
242.789	11488.4
245.988	11393.2
249.188	11271.6
252.384	11133.7
255.58	10973
258.775	10804.6
261.968	10697.2
265.159	10539.1
268.351	10372.1
271.54	10185.4
274.727	9987.22
277.913	9788.04
281.1	9584.52
284.283	9395.12
287.466	9211.03
290.648	9033.34
293.828	8859.76
297.006	8778.86
300.183	8706.58
303.359	8690.42
306.535	8700.69
309.708	8728.76
312.88	8765.01
316.05	8823.43
319.221	8874.5
322.389	8956.81
325.556	9043.58
328.721	9138.5
331.885	9201.39
335.049	9278.38
338.211	9357.28
341.371	9429.71
344.53	9503.32
347.688	9557.11
350.844	9591.94
354	9623.89
357.154	9652.76
360.307	9663.11
363.458	9676.76
366.608	9670.25
369.756	9689.48
372.903	9724.37
376.051	9821.7
379.196	9934.9
382.339	10069.1
385.481	10246
388.622	10455.8
391.762	10717.2
394.9	10994.9
398.037	11324.3
401.173	11705
404.308	12167.6
407.442	12699.6
410.574	13347.3
413.705	14117.9
416.834	14938.2
419.962	15878.8
423.089	16896.1
426.215	18001.3
429.339	19196.2
432.462	20385.3
435.584	21448
438.705	22213.6
441.824	22775.1
444.942	22711.1
448.059	22209.8
451.174	21090
454.288	19706.1
457.401	18026.2
460.513	16405.1
463.623	14927.2
466.732	13634
469.84	12558.9
472.947	11678.6
476.052	10989.9
479.156	10472
482.259	10068.2
485.361	9782.57
488.461	9533.17
491.56	9345.32
494.658	9192.82
497.755	9047.12
500.848	8981.13
503.942	8928.03
507.035	8893.55
510.127	8862.24
513.217	8834.54
516.306	8825.72
519.394	8812.89
522.481	8778.67
525.566	8739.85
528.65	8704.25
531.731	8661.1
534.813	8618.74
537.893	8573.66
540.972	8532.78
544.05	8491.61
547.127	8457.33
550.202	8429.08
553.275	8405.33
556.348	8393.12
559.42	8385.13
562.49	8405.82
565.559	8422.01
568.626	8453.14
571.693	8496.32
574.758	8565.76
577.822	8642.03
580.885	8734
583.946	8833.25
587.006	8946.55
590.065	9063.41
593.124	9207.58
596.18	9340.48
599.235	9443.52
602.289	9518.28
605.342	9459.26
608.394	9340
611.444	9077.71
614.493	8772.01
617.541	8327.51
620.588	7869.28
623.633	7400.62
626.677	6938.97
629.721	6576.56
632.762	6279.94
635.803	5978.31
638.842	5778.48
641.879	5618.34
644.917	5481.64
647.953	5410.04
650.988	5361.98
654.02	5324.02
657.052	5320.57
660.083	5332
663.112	5343.88
666.141	5362.84
669.167	5397.99
672.193	5440.18
675.219	5479.02
678.241	5523.47
681.264	5562.23
684.285	5604.65
687.304	5634.32
690.324	5661.82
693.34	5677.86
696.357	5701.82
699.372	5706.26
702.385	5699.9
705.398	5693.39
708.409	5663.69
711.419	5625.07
714.428	5586.53
717.436	5536.57
720.443	5482.51
723.448	5427.13
726.452	5370.14
729.454	5313.7
732.457	5258.9
735.456	5206.53
738.456	5157.08
741.454	5122.63
744.451	5079.82
747.446	5043.54
750.441	5007.85
753.434	4982.49
756.427	4955.65
759.417	4928.4
762.407	4904.56
765.395	4882.26
768.383	4861.76
771.368	4842.58
774.354	4828.46
777.337	4816.91
780.32	4807.98
783.301	4801.05
786.282	4796.21
789.26	4792.57
792.237	4787.88
795.215	4783.98
798.19	4780.71
801.165	4777.74
804.137	4773.35
807.108	4770.87
810.08	4767.26
813.049	4759.81
816.018	4748.79
818.984	4735.7
821.95	4718.35
824.915	4697.88
827.878	4674.81
830.84	4652.56
833.802	4630.76
836.762	4605.88
839.721	4579.67
842.679	4551.9
845.635	4524.48
848.591	4495.59
851.544	4466.97
854.497	4440.06
857.448	4415.95
860.4	4392.66
863.349	4373.77
866.297	4356.48
869.245	4339.56
872.19	4324.79
875.135	4311.54
878.079	4299.67
881.021	4287.58
883.962	4277.51
886.902	4268.2
889.842	4261.03
892.779	4253.17
895.715	4245.63
898.65	4240.58
901.586	4236.98
904.518	4231.62
907.45	4228.67
910.38	4226.74
913.31	4226.11
916.239	4224.07
919.166	4224.15
922.092	4225.69
925.017	4227.23
927.94	4227.37
930.864	4227.93
933.785	4227.55
936.706	4228.6
939.625	4228.44
942.542	4228.82
945.459	4228.26
948.376	4228.99
951.29	4230.55
954.203	4231.38
957.116	4229.94
960.027	4226.08
962.936	4221.08
965.845	4216.32
968.753	4211.32
971.66	4206.27
974.566	4197.85
977.47	4191.21
980.373	4184.46
983.274	4177.98
986.175	4169.07
989.075	4162.47
991.973	4159.22
994.87	4158.15
997.767	4159.25
1000.66	4161.03
1003.56	4163.12
1006.45	4167.26
1009.34	4169.99
1012.23	4170.67
1015.12	4173.7
1018.01	4174.27
1020.9	4174.29
1023.78	4173.05
1026.67	4170.75
1029.55	4167.65
1032.43	4165.8
1035.31	4165.27
1038.19	4166.54
1041.07	4166.44
1043.95	4168.41
1046.83	4173.56
1049.7	4178.24
1052.58	4181.54
1055.45	4184.54
1058.33	4184.47
1061.2	4184.18
1064.07	4183.09
1066.94	4178.58
1069.8	4171.26
1072.67	4167.5
1075.54	4164.6
1078.4	4162.14
1081.26	4162.54
1084.13	4163.63
1086.99	4168.08
1089.85	4173.23
1092.71	4180.29
1095.57	4187.75
1098.42	4195.24
1101.28	4206.2
1104.13	4216.43
1106.98	4224.47
1109.84	4232.62
1112.69	4240.14
1115.54	4244.84
1118.39	4249.49
1121.23	4252.53
1124.08	4254.47
1126.93	4256.77
1129.77	4258.92
1132.62	4262.77
1135.46	4264.27
1138.3	4266.83
1141.14	4269.64
1143.98	4271.79
1146.82	4273.03
1149.65	4274.83
1152.49	4274.1
1155.32	4270.14
1158.16	4269.19
1160.99	4268.54
1163.82	4267.01
1166.65	4268.07
1169.48	4268.83
1172.31	4270.12
1175.13	4273.14
1177.96	4278.32
1180.78	4284.32
1183.61	4293.31
1186.43	4301.61
1189.25	4311.17
1192.07	4318.62
1194.89	4327.6
1197.71	4336.6
1200.53	4346.42
1203.34	4353.36
1206.16	4359.67
1208.97	4363.4
1211.78	4367.47
1214.59	4373.95
1217.4	4379.13
1220.21	4383.62
1223.02	4384.82
1225.83	4383.55
1228.63	4383.42
1231.44	4385.81
1234.24	4385.63
1237.05	4383.6
1239.85	4383.04
1242.65	4380.37
1245.45	4380.61
1248.25	4379.5
1251.04	4380.89
1253.84	4380.75
1256.63	4378.79
1259.43	4375.02
1262.22	4372.8
1265.01	4370.98
1267.8	4370.63
1270.59	4368.23
1273.38	4367.16
1276.17	4366.89
1278.96	4366.98
1281.74	4369.48
1284.53	4374.12
1287.31	4379.66
1290.09	4384.28
1292.87	4391.61
1295.65	4397.26
1298.43	4402.63
1301.21	4408.55
1303.99	4415.24
1306.76	4427.66
1309.54	4427.7
1312.31	4426.91
1315.08	4424.44
1317.85	4419.82
1320.63	4414.85
1323.4	4410.37
1326.16	4408.61
1328.93	4409.1
1331.7	4412.08
1334.46	4416.28
1337.23	4422.7
1339.99	4430.69
1342.75	4437.23
1345.51	4442.28
1348.27	4447.08
1351.03	4450.55
1353.79	4447.94
1356.55	4448.46
1359.3	4445.53
1362.05	4443.9
1364.81	4437.35
1367.56	4432.23
1370.31	4428.07
1373.06	4424.37
1375.81	4420.82
1378.56	4419.85
1381.31	4420.1
1384.05	4421.87
1386.8	4425.02
1389.54	4429.12
1392.29	4433.88
1395.03	4435.96
1397.77	4438.32
1400.51	4442.03
1403.25	4447.83
1405.98	4451.28
1408.72	4455.63
1411.46	4459.06
1414.19	4460.98
1416.92	4463.88
1419.66	4464.24
1422.39	4466.91
1425.12	4468.69
1427.85	4472.86
1430.58	4477.61
1433.3	4486.44
1436.03	4495.51
1438.75	4506.82
1441.48	4513.9
1444.2	4517.88
1446.92	4520.51
1449.64	4520.09
1452.36	4518.42
1455.08	4512.88
1457.8	4507.66
1460.52	4499.41
1463.23	4494.7
1465.95	4490.16
1468.66	4486.65
1471.37	4483.96
1474.09	4483.89
1476.8	4484.24
1479.51	4484.65
1482.21	4489.47
1484.92	4495.79
1487.63	4502.81
1490.33	4510.44
1493.04	4515.39
1495.74	4515.95
1498.44	4517.06
1501.14	4517.97
1503.85	4518.92
1506.54	4518.53
1509.24	4518.66
1511.94	4518.38
1514.64	4517.6
1517.33	4518.68
1520.03	4521.06
1522.72	4524.89
1525.41	4530.46
1528.1	4536.75
1530.79	4536.64
1533.48	4536.33
1536.17	4536.92
1538.86	4536.34
1541.54	4533.41
1544.23	4528.41
1546.91	4521.88
1549.59	4516.44
1552.28	4516.19
1554.96	4515.96
1557.64	4511.92
1560.32	4510.33
1562.99	4512.59
1565.67	4512.55
1568.35	4515.26
1571.02	4515.73
1573.69	4515.7
1576.37	4515.91
1579.04	4515.92
1581.71	4516.21
1584.38	4515.75
1587.05	4516.71
1589.72	4516.87
1592.38	4507.38
1595.05	4513.43
1597.71	4519.71
1600.38	4525.4
1603.04	4530.07
1605.7	4534.83
1608.36	4538.89
1611.02	4536.26
1613.68	4529
1616.34	4524.24
1618.99	4517.66
1621.65	4513.14
1624.3	4506.17
1626.96	4500.54
1629.61	4491.59
1632.26	4484.02
1634.91	4477.57
1637.56	4470.4
1640.21	4463.9
1642.86	4458.63
1645.51	4453.14
1648.15	4448.33
1650.8	4444.63
1653.44	4440.32
1656.08	4436.36
1658.72	4433.39
1661.36	4426.42
1664	4418.99
1666.64	4412.98
1669.28	4410.05
1671.92	4406.42
1674.55	4403.3
1677.19	4399.41
1679.82	4395.41
1682.45	4389.64
1685.09	4383.46
1687.72	4378.46
1690.35	4372.52
1692.98	4368.96
1695.6	4365.41
1698.23	4362.56
1700.86	4359.34
1703.48	4355.86
1706.1	4350.74
1708.73	4345.52
1711.35	4339.84
1713.97	4336.13
1716.59	4332.18
1719.21	4331.9
1721.83	4331.24
1724.44	4329.39
1727.06	4327.26
1729.67	4325.55
1732.29	4322.86
1734.9	4319.77
1737.51	4318.02
1740.12	4319.09
1742.74	4318.69
1745.34	4315.68
1747.95	4309.33
1750.56	4300.99
1753.17	4292.41
1755.77	4283.06
1758.38	4275.95
1760.98	4265.76
1763.58	4258.72
1766.18	4250.94
1768.78	4240.9
1771.38	4235.68
1773.98	4228.53
1776.58	4222.6
1779.18	4218.01
1781.77	4216.3
1784.37	4216.27
1786.96	4216.63
1789.55	4217.92
1792.14	4221.67
1794.73	4223.12
1797.32	4224.02
1799.91	4225.47
1802.5	4228.65
1805.09	4231.34
1807.67	4235.34
1810.26	4239.28
1812.84	4241.1
1815.43	4241.67
1818.01	4239.6
1820.59	4234.78
1823.17	4232.1
1825.75	4226.38
1828.33	4220.76
1830.9	4212.56
1833.48	4205.44
1836.05	4195.27
1838.63	4184.94
1841.2	4174.99
1843.77	4165.36
1846.35	4156.42
1848.92	4149.69
1851.49	4146.53
1854.06	4143.75
1856.62	4141.39
1859.19	4141.21
1861.75	4140.26
1864.32	4138.68
1866.88	4137.49
1869.45	4136.18
1872.01	4132.52
1874.57	4129.72
1877.13	4121.88
1879.69	4116.24
1882.25	4110.46
1884.8	4103.58
1887.36	4094.81
1889.92	4089.86
1892.47	4087.64
1895.02	4084.76
1897.58	4084.32
1900.13	4087.01
1902.68	4088.71
1905.23	4087.43
1907.78	4089.06
1910.33	4090.05
1912.87	4090.38
1915.42	4090.01
1917.96	4087.43
1920.51	4084.85
1923.05	4081.68
1925.59	4077.09
1928.13	4070.96
1930.67	4065.77
1933.21	4058.45
1935.75	4050.27
1938.29	4044.44
1940.82	4040.03
1943.36	4032.73
1945.9	4025.08
1948.43	4019.36
1950.96	4014.77
1953.49	4012.62
1956.02	4010.72
1958.55	4011.54
1961.08	4011.43
1963.61	4006.9
1966.14	4003.35
1968.66	3999.23
1971.19	3995.04
1973.71	3990.21
1976.24	3988.26
1978.76	3983.85
1981.28	3979.81
1983.8	3976.21
1986.32	3972.43
1988.84	3968.76
1991.36	3963.3
1993.88	3955.69
1996.39	3949.77
1998.91	3944.09
2001.42	3941.73
2003.94	3939.52
2006.45	3938.18
2008.96	3938.21
2011.47	3936.15
2013.98	3935.61
2016.49	3932.93
2019	3925.57
2021.5	3915.57
2024.01	3907.17
2026.51	3898.98
2029.02	3892.92
2031.52	3887.18
2034.02	3882.61
2036.52	3876.23
2039.02	3871.74
2041.52	3869.11
2044.02	3868.95
2046.52	3871.19
2049.02	3873.26
2051.51	3874.3
2054.01	3874.69
2056.5	3874.76
2058.99	3875.62
2061.49	3873.97
2063.98	3872.57
2066.47	3866.01
2068.96	3857.58
2071.45	3848.57
2073.93	3839.62
2076.42	3832.38
2078.91	3823.7
2081.39	3816.86
2083.88	3810.09
2086.36	3803.02
2088.84	3798.09
2091.32	3794.9
2093.8	3793.37
2096.28	3789.26
2098.76	3784.46
2101.24	3780.01
2103.72	3774.6
2106.19	3770.01
2108.67	3765.36
2111.14	3759.9
2113.61	3754.6
2116.09	3745.14
2118.56	3740.18
2121.03	3736.33
2123.5	3734.56
2125.97	3734.03
2128.43	3734.27
2130.9	3733.78
2133.37	3732.37
2135.83	3729.45
2138.3	3725.1
2140.76	3719.47
2143.22	3713.4
2145.68	3706.37
2148.14	3700.32
2150.6	3696.41
2153.06	3690.85
2155.52	3684.52
2157.98	3677.02
2160.43	3672.39
2162.89	3671.19
2165.34	3667.97
2167.8	3666.67
2170.25	3667.21
2172.7	3669.56
2175.15	3671.09
2177.6	3669.9
2180.05	3668.77
2182.5	3667.86
2184.95	3665.7
2187.39	3664.48
2189.84	3662.37
2192.28	3661.19
2194.73	3659.96
2197.17	3658.37
2199.61	3656.47
2202.05	3653.89
2204.49	3653.04
2206.93	3650.83
2209.37	3646.08
2211.81	3641.77
2214.24	3639.25
2216.68	3636.25
2219.11	3634.5
2221.55	3632.5
2223.98	3629.43
2226.41	3625.36
2228.84	3620.16
2231.27	3614.73
2233.7	3597.04
2236.13	3598.47
2238.56	3606.18
2240.99	3612.85
2243.41	3614.96
2245.84	3607.86
2248.26	3593.11
2250.69	3585.22
2253.11	3578.65
2255.53	3581.39
2257.95	3582.99
2260.37	3606.73
2262.79	3611.92
2265.21	3613.01
2267.63	3610.76
2270.04	3604.68
2272.46	3591.45
2274.87	3579.18
2277.29	3568.38
2279.7	3554.75
2282.11	3542.95
2284.52	3533.95
2286.93	3527.38
2289.34	3520.8
2291.75	3517.46
2294.16	3514.14
2296.57	3513.98
2298.97	3510.67
2301.38	3508.98
2303.78	3506.91
2306.19	3503.91
2308.59	3500.41
2310.99	3498.11
2313.39	3494.43
2315.79	3489.36
2318.19	3485.61
2320.59	3480.98
2322.99	3473.89
2325.38	3470.63
2327.78	3467.64
2330.17	3466.21
2332.57	3466.12
2334.96	3465.69
2337.35	3467.53
2339.74	3468.75
2342.13	3468.65
2344.52	3467.87
2346.91	3461.85
2349.3	3458.6
2351.69	3457.41
2354.07	3455.63
2356.46	3453.9
2358.84	3452.35
2361.23	3450.21
2363.61	3448.65
2365.99	3446.45
2368.37	3444.97
2370.75	3442.76
2373.13	3440.84
2375.51	3437.71
2377.89	3433.34
2380.27	3428.67
2382.64	3425.03
2385.02	3421.05
2387.39	3418.12
2389.77	3412.71
2392.14	3405.97
2394.51	3399.68
2396.88	3392.55
2399.25	3386.76
2401.62	3382.9
2403.99	3376.18
2406.36	3373.9
2408.72	3372.72
2411.09	3372.98
2413.46	3374.46
2415.82	3375.8
2418.18	3376.71
2420.55	3376.67
2422.91	3376.02
2425.27	3372.66
2427.63	3370.91
2429.99	3369.14
2432.35	3369.29
2434.7	3368.83
2437.06	3365.89
2439.42	3364.54
2441.77	3360.43
2444.12	3355.82
2446.48	3351.08
2448.83	3346.76
2451.18	3336.38
2453.53	3334.03
2455.88	3334.04
2458.23	3333.5
2460.58	3338.15
2462.93	3339.85
2465.27	3336.77
2467.62	3333.01
2469.97	3328.04
2472.31	3322.1
2474.65	3320.12
2476.99	3319.4
2479.34	3316.29
2481.68	3313.4
2484.02	3308.46
2486.36	3304.19
2488.69	3296.8
2491.03	3292.29
2493.37	3292.34
2495.7	3294.49
2498.04	3295.55
2500.37	3299.72
2502.71	3302.96
2505.04	3304.37
2507.37	3303.91
2509.7	3301.75
2512.03	3297.1
2514.36	3295.44
2516.69	3292.57
2519.02	3290.78
2521.34	3287.54
2523.67	3284.94
2526	3281.77
2528.32	3276.18
2530.64	3270.08
2532.97	3265.47
2535.29	3258.93
2537.61	3253.73
2539.93	3250.25
2542.25	3246.7
2544.57	3242.67
2546.88	3238.23
2549.2	3233.5
2551.52	3227.97
2553.83	3222.33
2556.15	3218.77
2558.46	3216.88
2560.77	3211.9
2563.09	3206.86
2565.4	3205.45
2567.71	3204.55
2570.02	3203.87
2572.33	3203.55
2574.63	3200.86
2576.94	3197.55
2579.25	3194.6
2581.55	3191.1
2583.86	3188.45
2586.16	3185.05
2588.46	3181.52
2590.77	3179.13
2593.07	3178
2595.37	3177.21
2597.67	3179.02
2599.97	3181.4
2602.27	3183
2604.56	3184.56
2606.86	3182.05
2609.16	3181.39
2611.45	3181.38
2613.74	3179.73
2616.04	3177.65
2618.33	3174.97
2620.62	3171.64
2622.91	3162.93
2625.2	3155.13
2627.49	3147.44
2629.78	3139.56
2632.07	3133.56
2634.36	3128.92
2636.64	3123.83
2638.93	3119.81
2641.21	3118.47
2643.5	3117.48
2645.78	3120.02
2648.06	3120.69
2650.34	3122.46
2652.62	3121.57
2654.9	3122.01
2657.18	3121.77
2659.46	3119.03
2661.74	3115.53
2664.01	3109.01
2666.29	3106.53
2668.56	3104.75
2670.84	3103.13
2673.11	3099.3
2675.38	3094.95
2677.66	3091.61
2679.93	3086.45
2682.2	3081.08
2684.47	3077.18
2686.74	3074.27
2689	3076.09
2691.27	3067.28
2693.54	3052.45
2695.8	3055.28
2698.07	3057.9
2700.33	3064.28
2702.59	3070.73
2704.86	3052.08
2707.12	3041.57
2709.38	3036.28
2711.64	3033.49
2713.9	3028.9
2716.16	3029.6
2718.41	3024.61
2720.67	3018.71
2722.93	3013.91
2725.18	3011.1
2727.44	3008.41
2729.69	3004.42
2731.94	3001.24
2734.19	2999.43
2736.45	2996.62
2738.7	2993.18
2740.95	2991.26
2743.19	2988.02
2745.44	2987.28
2747.69	2983.19
2749.94	2979.37
2752.18	2978.17
2754.43	2975.68
2756.67	2973.35
2758.92	2969.38
2761.16	2963.53
2763.4	2960.3
2765.64	2958.23
2767.88	2957.96
2770.12	2957.89
2772.36	2954.8
2774.6	2951.66
2776.83	2951
2779.07	2949.72
2781.31	2948.76
2783.54	2946.95
2785.78	2945.81
2788.01	2944.07
2790.24	2944.93
2792.47	2945.31
2794.71	2945.04
2796.94	2944
2799.17	2941.1
2801.39	2935.89
2803.62	2931.16
2805.85	2926.25
2808.08	2922.96
2810.3	2919.14
2812.53	2917.94
2814.75	2914.26
2816.97	2911.45
2819.2	2908.36
2821.42	2908.34
2823.64	2910.25
2825.86	2910.91
2828.08	2910.57
2830.3	2908.53
2832.52	2906.48
2834.73	2902.64
2836.95	2899.29
2839.16	2893.97
2841.38	2888.41
2843.59	2882.92
2845.81	2876.32
2848.02	2871.66
2850.23	2869.51
2852.44	2868.38
2854.65	2868.42
2856.86	2870.5
2859.07	2873.58
2861.28	2879.25
2863.49	2884.76
2865.69	2890.4
2867.9	2893.64
2870.1	2892.6
2872.31	2889.41
2874.51	2888.15
2876.71	2885.49
2878.92	2881.82
2881.12	2876.75
2883.32	2870.66
2885.52	2863.59
2887.72	2856.9
2889.91	2852
2892.11	2849.51
2894.31	2845.88
2896.5	2844.56
2898.7	2840.93
2900.89	2836.23
2903.09	2832.03
2905.28	2827.3
2907.47	2820.72
2909.66	2814.36
2911.86	2809.71
2914.04	2805.8
2916.23	2804.32
2918.42	2802.91
2920.61	2800.75
2922.8	2798.45
2924.98	2797.43
2927.17	2798.36
2929.35	2800.02
2931.54	2800.62
2933.72	2803.24
2935.9	2805.19
2938.08	2807.23
2940.26	2808.64
2942.45	2805.33
2944.62	2803.44
2946.8	2802
2948.98	2798.43
2951.16	2792.43
2953.33	2785.13
2955.51	2779.12
2957.69	2772.37
2959.86	2767.75
2962.03	2763.64
2964.21	2757.84
2966.38	2751.68
2968.55	2748.87
2970.72	2746.13
2972.89	2741.7
2975.06	2736.48
2977.23	2733.99
2979.39	2731.04
2981.56	2725.8
2983.73	2718.99
2985.89	2713.27
2988.06	2708.34
2990.22	2704.69
2992.38	2699.8
2994.55	2695.92
2996.71	2691.08
2998.87	2686.74
3001.03	2683.2
3003.19	2680.45
3005.35	2674.84
3007.5	2670.06
3009.66	2664.35
3011.82	2657.68
3013.97	2650.85
3016.13	2644.34
3018.28	2636.83
3020.44	2630.74
3022.59	2622.88
3024.74	2620
3026.89	2620.01
3029.04	2619.66
3031.19	2619.24
3033.34	2628.01
3035.49	2624.04
3037.64	2620.07
3039.78	2612.46
3041.93	2607.06
3044.08	2598.55
3046.22	2592.82
3048.37	2588.46
3050.51	2584.33
3052.65	2581.78
3054.79	2598.11
3056.93	2599.93
3059.07	2602.22
3061.21	2601.72
3063.35	2601.87
3065.49	2597.23
3067.63	2595.03
3069.76	2592.93
3071.9	2590.09
3074.04	2587.7
3076.17	2585.49
3078.31	2580.06
3080.44	2575.05
3082.57	2568.45
3084.7	2560.87
3086.83	2553.16
3088.96	2544.67
3091.09	2536.03
3093.22	2527.64
3095.35	2518.37
3097.48	2508.32
3099.6	2501
3101.73	2495.39
3103.85	2488.96
3105.98	2484.01
3108.1	2482.57
3110.23	2482.83
3112.35	2481.03
3114.47	2481.67
3116.59	2481.67
3118.71	2482.19
3120.83	2481.47
3122.95	2481.35
3125.07	2478.1
3127.19	2478.1
3129.3	2476.9
3131.42	2474.59
3133.53	2470.8
3135.65	2467.02
3137.76	2464.8
3139.87	2459.97
3141.99	2455.37
3144.1	2451.13
3146.21	2447.55
3148.32	2445.16
3150.43	2442.64
3152.54	2440.19
3154.64	2434.65
3156.75	2428.17
3158.86	2422.01
3160.96	2418.32
3163.07	2414.98
3165.17	2412.45
3167.28	2411.18
3169.38	2410.23
3171.48	2406.64
3173.58	2404.3
3175.69	2401.18
3177.79	2398.14
3179.89	2394.09
3181.98	2385.87
3184.08	2378.48
3186.18	2373.58
3188.28	2368.87
3190.37	2365.83
3192.47	2360.55
3194.56	2354.89
3196.66	2347.25
3198.75	2341.44
3200.84	2338.67
3202.93	2337.41
3205.03	2336.48
3207.12	2335.17
3209.21	2334.47
3211.29	2333.74
3213.38	2334.16
3215.47	2333.65
3217.56	2331.4
3219.64	2328.91
3221.73	2324.04
3223.81	2319.75
3225.9	2316.72
3227.98	2312.05
3230.06	2305.79
3232.15	2298.52
3234.23	2293.95
3236.31	2287.65
3238.39	2281.52
3240.47	2278.35
3242.55	2274.69
3244.62	2271.56
3246.7	2268.17
3248.78	2263.73
3250.85	2259.75
3252.93	2255.37
3255	2250.3
3257.08	2245.51
3259.15	2240.61
3261.22	2237.82
3263.29	2234.59
3265.36	2229.84
3267.43	2225.12
3269.5	2217.51
3271.57	2215.52
3273.64	2209.98
3275.71	2205.66
3277.78	2200.93
3279.84	2196.09
3281.91	2189.33
3283.97	2182.01
3286.03	2174.81
3288.1	2167.11
3290.16	2158.96
3292.22	2153.51
3294.28	2151.03
3296.34	2151.17
3298.4	2151.06
3300.46	2152.52
3302.52	2153.57
3304.58	2153.49
3306.64	2154.59
3308.69	2156.97
3310.75	2156.93
3312.8	2156.92
3314.86	2154.66
3316.91	2152.32
3318.97	2152.25
3321.02	2150.38
3323.07	2146.53
3325.12	2144.48
3327.17	2142.43
3329.22	2139.44
3331.27	2135.87
3333.32	2132.4
3335.37	2137.17
3337.41	2132.49
3339.46	2125.29
3341.5	2116.36
3343.55	2107.96
3345.59	2099.49
3347.64	2091.02
3349.68	2084.21
3351.72	2075.61
3353.76	2067.37
3355.8	2061.07
3357.84	2056.45
3359.88	2055
3361.92	2055.27
3363.96	2056.24
3366	2061.12
3368.03	2064.51
3370.07	2066.32
3372.1	2067.65
3374.14	2068.43
3376.17	2068.01
3378.21	2065.79
3380.24	2061.45
3382.27	2056.41
3384.3	2050.26
3386.33	2047.44
3388.36	2044
3390.39	2038.04
3392.42	2031.98
3394.45	2026.32
3396.48	2023.53
3398.5	2020.66
3400.53	2019.57
3402.56	2016.48
3404.58	2011.03
3406.6	2006.16
3408.63	1999.74
3410.65	1996.62
3412.67	1991.33
3414.69	1985.24
3416.71	1978.37
3418.73	1971.43
3420.75	1965.17
3422.77	1960.26
3424.79	1957.79
3426.81	1957.31
3428.82	1962.97
3430.84	1963.95
3432.86	1966.45
3434.87	1970.39
3436.88	1974.82
3438.9	1975.42
3440.91	1975.54
3442.92	1975.22
3444.93	1973.21
3446.94	1972.05
3448.95	1970.46
3450.96	1967.52
3452.97	1964.95
3454.98	1963.2
3456.99	1959.04
3458.99	1952.25
3461	1947.53
3463.01	1942.23
3465.01	1941.18
3467.01	1940.95
3469.02	1940.02
3471.02	1938.91
3473.02	1941.04
3475.02	1937.77
3477.02	1935.37
3479.02	1931.33
3481.02	1928.38
3483.02	1925.96
3485.02	1923.29
3487.02	1921.53
3489.02	1919.28
3491.01	1926.48
3493.01	1921.16
3495	1910.83
3497	1899.6
3498.99	1888.24
3500.98	1876.15
3502.97	1864.8
3504.97	1862.15
3506.96	1855.95
3508.95	1849.91
3510.94	1844.39
3512.93	1841.01
3514.91	1840.84
3516.9	1845.86
3518.89	1845.66
3520.88	1845.08
3522.86	1845.47
3524.85	1842.63
3526.83	1840.01
3528.81	1834.9
3530.8	1830.59
3532.78	1827.57
3534.76	1825.44
3536.74	1822.78
3538.72	1822.28
3540.7	1821.13
3542.68	1819.99
3544.66	1816.79
3546.64	1814.48
3548.62	1812.45
3550.59	1811.69
3552.57	1808.42
3554.55	1802.97
3556.52	1799.64
3558.49	1794.5
3560.47	1789.76
3562.44	1785.94
3564.41	1778.66
3566.38	1771.03
3568.35	1765.03
3570.32	1760.93
3572.29	1757.98
3574.26	1755.54
3576.23	1751.54
3578.2	1748.75
3580.17	1745.51
3582.13	1741.47
3584.1	1740.78
3586.06	1740.35
3588.03	1741.36
3589.99	1740.72
3591.96	1738.63
3593.92	1734.76
3595.88	1731.75
3597.84	1728.28
3599.8	1722.6
3601.76	1719.37
3603.72	1714.37
3605.68	1710.43
3607.64	1708.22
3609.6	1704.4
3611.55	1700.78
3613.51	1695.67
3615.46	1689.92
3617.42	1685.1
3619.37	1679.42
3621.33	1675.81
3623.28	1675.51
3625.23	1675
3627.18	1673.2
3629.13	1672.81
3631.09	1672.17
3633.04	1671.82
3634.98	1672.2
3636.93	1671.32
3638.88	1668.59
3640.83	1666.74
3642.77	1662.78
3644.72	1658.51
3646.67	1654.56
3648.61	1650.58
3650.56	1646.69
3652.5	1644.9
3654.44	1643.93
3656.38	1643.73
3658.33	1644.65
3660.27	1645.63
3662.21	1645.85
3664.15	1643.09
3666.09	1640.08
3668.02	1637.51
3669.96	1631.92
3671.9	1627.32
3673.84	1620.71
3675.77	1614.55
3677.71	1607.31
3679.64	1602.77
3681.58	1598.88
3683.51	1596.62
3685.44	1594.92
3687.38	1596.25
3689.31	1596.01
3691.24	1596.94
3693.17	1597.92
3695.1	1598.2
3697.03	1598.02
3698.96	1598.35
3700.88	1598.15
3702.81	1596.99
3704.74	1597.75
3706.66	1597.45
3708.59	1596.39
3710.51	1594.99
3712.44	1594.42
3714.36	1592.63
3716.28	1589.23
3718.21	1584.7
3720.13	1578.55
3722.05	1572.61
3723.97	1566.14
3725.89	1559.94
3727.81	1552.52
3729.73	1548.62
3731.65	1543.23
3733.56	1537.98
3735.48	1533.71
3737.4	1530.82
3739.31	1527.95
3741.23	1525.53
3743.14	1524.78
3745.05	1526.43
3746.97	1518.72
3748.88	1510.62
3750.79	1507.2
3752.7	1504.93
3754.61	1503.81
3756.52	1503.63
3758.43	1502.82
3760.34	1505.34
3762.25	1507.26
3764.16	1509.77
3766.06	1506.08
3767.97	1503.8
3769.88	1495.67
3771.78	1492.19
3773.69	1488.05
3775.59	1487.38
3777.49	1489.16
3779.4	1488.09
3781.3	1488.62
3783.2	1486.72
3785.1	1485.88
3787	1485.2
3788.9	1485.32
3790.8	1486.55
3792.7	1484.44
3794.59	1483.23
3796.49	1480.12
3798.39	1477.96
3800.28	1475.65
3802.18	1472.5
3804.07	1468.02
3805.97	1463.48
3807.86	1457.47
3809.76	1452.18
3811.65	1446.32
3813.54	1440.56
3815.43	1432.77
3817.32	1425.41
3819.21	1419.34
3821.1	1416.03
3822.99	1415.7
3824.88	1414.28
3826.76	1413.46
3828.65	1412.51
3830.54	1411.23
3832.42	1410.86
3834.31	1411.12
3836.19	1411.72
3838.08	1413.33
3839.96	1416
3841.84	1417.28
3843.72	1417.05
3845.61	1418.35
3847.49	1418.67
3849.37	1418.61
3851.25	1416.24
3853.13	1414.02
3855	1412.13
3856.88	1409.42
3858.76	1405.31
3860.64	1400.42
3862.51	1395.27
3864.39	1388.23
3866.26	1381.53
3868.14	1376.43
3870.01	1372.64
3871.88	1369.39
3873.76	1366.92
3875.63	1365.25
3877.5	1364.89
3879.37	1364.12
3881.24	1363.18
3883.11	1363.1
3884.98	1362.86
3886.85	1367.99
3888.72	1368.19
3890.58	1367.67
3892.45	1363.3
3894.31	1358.14
3896.18	1352.18
3898.05	1345.54
3899.91	1338.63
3901.77	1328.3
3903.64	1324.42
3905.5	1320.68
3907.36	1319.82
3909.22	1321.94
3911.08	1327.73
3912.94	1341
3914.8	1343.14
3916.66	1343.09
3918.52	1340.53
3920.38	1338.57
3922.23	1336.32
3924.09	1332.85
3925.95	1328.22
3927.8	1324.85
3929.66	1319.69
3931.51	1319.94
3933.36	1318.67
3935.22	1320.76
3937.07	1319.9
3938.92	1317.04
3940.77	1313.29
3942.62	1311.56
3944.47	1308.52
3946.32	1305.48
3948.17	1301.49
3950.02	1299.23
3951.87	1294.69
3953.72	1292.55
3955.56	1289.69
3957.41	1288.33
3959.25	1287.53
3961.1	1285.46
3962.94	1282.83
3964.79	1278.78
3966.63	1273.13
3968.47	1270.37
3970.31	1267.34
3972.16	1262.76
3974	1257.32
3975.84	1252.28
3977.68	1248.94
3979.51	1245.39
3981.35	1241.89
3983.19	1238.96
3985.03	1238.05
3986.87	1236.04
3988.7	1233.3
3990.54	1232.4
3992.37	1231.51
3994.21	1231.09
3996.04	1231.89
3997.87	1228.55
3999.71	1221.09
