#Acq. time (s)=	20
#Accumulations=	2
#Range (cm-¹)=	100...5300
#Windows=	1
#Auto scanning=	Off
#Autofocus=	Off
#Macrospot=	Off
#AutoExposure=	Off
#Spike filter=	Multiple accum.
#Delay time (s)=	1
#Binning=	1
#Readout mode=	Signal
#DeNoise=	Standard
#ICS correction=	On
#Dark correction=	Off
#Inst. Process=	On
#Detector Gain=	Best Dynamic
#Detector ADC=	50 kHz HS
#Detector temperature (°C)=	-60.09
#Instrument=	LabRAM HR Evol
#Detector=	SIN-EM FIVIS
#Objective=	x50_VIS_LWD
#Grating=	150 (500nm)
#ND Filter=	100%
#Laser=	532nm_Edge
#Hole=	100.021
#Temperature=	0
#Range=	Visible
#StageXY=	75x50mm Scan+
#StageZ=	Z motor
#X (µm)=	0
#Y (µm)=	0
#Z (µm)=	1335.9
#Project=	20_05_08
#Sample=	BU20
#Site=	
#Title=	montebrasite_BU20B_150 (500nm)_532nm_Edge_100%_x50_VIS_LWD_H100um_20sX2
#Remark=	
#Date=	08.05.2020 16:51
#Acquired=	08.05.2020 16:51:33
104.231	5595.93
108.853	7295.62
113.473	8624.75
118.091	9139.62
122.707	8243.66
127.318	6581.18
131.93	5707
136.538	5647.34
141.145	5879.53
145.747	6166.14
150.349	5941.09
154.949	5561.58
159.547	5063.74
164.142	4658.74
168.733	4455.52
173.323	4321.71
177.912	4218.41
182.496	3809.48
187.08	3600.43
191.661	3489.47
196.241	3539.05
200.816	3621.55
205.391	3714.08
209.963	3704.72
214.532	3656.04
219.1	3577.24
223.666	3491.46
228.229	3423.01
232.789	3402.37
237.348	3464.42
241.905	3659.49
246.458	4078.7
251.01	4611.76
255.56	5215.69
260.106	5901.89
264.652	7033.83
269.195	9804.48
273.735	15002.9
278.274	21209.3
282.809	25431.4
287.343	25564.7
291.876	21220
296.404	16218.4
300.932	12242.5
305.458	9548.07
309.979	7897.1
314.5	6780.76
319.017	5966.27
323.534	5396.06
328.049	4959.91
332.559	4784.39
337.07	4745.57
341.576	4807.6
346.082	4846.12
350.583	5032.7
355.085	5162.58
359.584	5196.79
364.079	5170.27
368.574	5077.78
373.065	4959.44
377.555	4855.68
382.042	4773.97
386.528	4736.32
391.01	4705.27
395.491	4982.98
399.969	5593.89
404.446	6503.83
408.92	6899.95
413.393	6796.4
417.862	5648.65
422.33	4783.19
426.795	4387.77
431.259	4135.12
435.719	4026.51
440.179	4108.91
444.635	4295.6
449.091	4689.12
453.542	5293.68
457.994	6116.28
462.441	6853.39
466.888	7265.25
471.331	7391.86
475.772	7136.86
480.212	6677.15
484.649	6066.15
489.085	5320.09
493.517	4645.87
497.949	4208.06
502.377	3941.66
506.802	3780.73
511.228	3647.99
515.649	3637.95
520.071	3620.96
524.488	3645.26
528.903	3677.9
533.318	3702.39
537.728	3738.92
542.137	3745.22
546.546	3783.66
550.95	3839.2
555.354	3905.39
559.754	4013.82
564.152	4194.81
568.55	4689.21
572.944	5695.69
577.335	7534.27
581.727	8871.98
586.114	9159.58
590.499	8510.56
594.885	7346.69
599.266	7180.63
603.645	7934
608.023	9776.98
612.398	11743.8
616.771	14342.8
621.141	17910.6
625.512	21550.1
629.878	23261.5
634.242	19116.2
638.604	12146.5
642.966	7802.14
647.324	5555.7
651.68	4418.37
656.036	4048.4
660.387	3717.67
664.737	3543.87
669.084	3424.56
673.43	3328.77
677.775	3258.53
682.116	3209
686.455	3171.3
690.792	3140.23
695.129	3117.97
699.462	3104.11
703.793	3098.65
708.122	3093.2
712.448	3099.55
716.775	3103.55
721.098	3123.39
725.418	3132.8
729.736	3157.74
734.053	3174.15
738.367	3212.03
742.681	3224.16
746.991	3240.28
751.3	3282.29
755.606	3328.5
759.91	3400.77
764.212	3496.2
768.511	3620.89
772.809	3793.14
777.107	3981.76
781.401	4126.78
785.692	4239.92
789.982	4249.74
794.27	4192.92
798.555	4038.56
802.839	3875.44
807.12	3719.87
811.4	3602.87
815.677	3551.77
819.954	3527.87
824.228	3525.65
828.499	3541.61
832.768	3571.43
837.036	3620.59
841.301	3679.02
845.564	3760.42
849.825	3853.11
854.084	3959.91
858.342	4074.79
862.597	4180.34
866.85	4309.72
871.101	4414.22
875.35	4486.95
879.597	4549.75
883.842	4572.18
888.085	4437.21
892.326	4305.11
896.565	4189.21
900.802	4117.83
905.037	4087.72
909.27	4085.01
913.501	4106.94
917.73	4156.21
921.957	4222.41
926.182	4312.85
930.405	4364.4
934.626	4447.68
938.845	4571.56
943.06	4720.3
947.275	4901.87
951.488	5162.43
955.699	5494.14
959.908	5989.01
964.115	6720.01
968.32	7692.87
972.523	9741.98
976.724	13028.7
980.923	18429.1
985.119	25869.9
989.314	33566.1
993.507	34374
997.698	34403.7
1001.89	32892.1
1006.07	24239.4
1010.26	18456
1014.44	14447.9
1018.62	13025.5
1022.8	13263
1026.98	15364.5
1031.16	18830.3
1035.33	24182.5
1039.5	29990.1
1043.67	33067.5
1047.84	31142.3
1052	22258.2
1056.16	14608.9
1060.32	10040
1064.48	7804.4
1068.64	6915.72
1072.8	6312.67
1076.95	6196.36
1081.1	6408.49
1085.25	6951.12
1089.4	7869.46
1093.55	8517.4
1097.69	8835.41
1101.83	8731.12
1105.97	8146.1
1110.11	7387.94
1114.24	6562.47
1118.38	5851.34
1122.51	5362.7
1126.64	5007.2
1130.77	4777.88
1134.9	4661.29
1139.02	4636.64
1143.14	4636.66
1147.26	4761.57
1151.38	4873.75
1155.5	4991.61
1159.61	5124.33
1163.73	5356.74
1167.84	5633.27
1171.95	5869.31
1176.05	5971.76
1180.16	5992.45
1184.26	5679.13
1188.36	5287.94
1192.46	4865.25
1196.56	4496.27
1200.65	4215.66
1204.75	4157.42
1208.84	3937.18
1212.93	3866.89
1217.02	3816.36
1221.1	3783.28
1225.19	3755.06
1229.27	3736.09
1233.35	3718.4
1237.43	3699.84
1241.5	3684.39
1245.58	3675.5
1249.65	3670.32
1253.72	3666.75
1257.79	3664.72
1261.86	3664.18
1265.92	3666.39
1269.98	3669.67
1274.05	3673.09
1278.1	3676.11
1282.16	3677.78
1286.22	3678.41
1290.27	3678.33
1294.32	3677.25
1298.37	3674.98
1302.42	3671.9
1306.47	3667.83
1310.51	3663.09
1314.55	3657.71
1318.59	3651.71
1322.63	3645.27
1326.67	3638.63
1330.7	3631.7
1334.74	3624.18
1338.77	3616.94
1342.8	3609.94
1346.83	3602.99
1350.85	3595.39
1354.87	3587.22
1358.9	3578.53
1362.91	3569.6
1366.93	3561.07
1370.95	3553.06
1374.96	3546.22
1378.98	3540.51
1382.99	3536.67
1387	3532.57
1391	3531.29
1395.01	3534.43
1399.01	3540.16
1403.01	3547.71
1407.01	3557
1411.01	3566.45
1415	3579.41
1419	3590.84
1422.99	3598.88
1426.98	3604.42
1430.97	3607.07
1434.95	3607.04
1438.94	3603.59
1442.92	3597.32
1446.9	3587.39
1450.88	3577.68
1454.86	3568.41
1458.84	3560.3
1462.81	3553.39
1466.78	3547
1470.75	3541.94
1474.72	3537.52
1478.69	3533.99
1482.65	3531.03
1486.61	3528.27
1490.57	3525.97
1494.53	3522.86
1498.49	3521.05
1502.45	3519.3
1506.4	3517.99
1510.35	3516.55
1514.3	3514.75
1518.25	3510.17
1522.2	3510.48
1526.14	3515.76
1530.08	3524.74
1534.02	3537.53
1537.96	3553.87
1541.9	3573.16
1545.83	3595.13
1549.77	3617.94
1553.7	3642.29
1557.63	3665.45
1561.56	3687.9
1565.49	3710.67
1569.41	3726.56
1573.33	3736.59
1577.25	3738.99
1581.17	3735.14
1585.09	3727.39
1589.01	3719.41
1592.92	3707.4
1596.83	3694.16
1600.74	3679.57
1604.65	3664.51
1608.56	3649.24
1612.46	3633.49
1616.37	3617.89
1620.27	3602.21
1624.17	3586.9
1628.07	3572.56
1631.96	3561.52
1635.86	3554.46
1639.75	3545.9
1643.64	3538.13
1647.53	3531.2
1651.41	3525.1
1655.3	3520.12
1659.18	3516.39
1663.07	3513.97
1666.95	3512.65
1670.82	3513.92
1674.7	3516.96
1678.58	3521.37
1682.45	3526.54
1686.32	3531.92
1690.19	3535.88
1694.06	3539.89
1697.92	3544.03
1701.79	3547.97
1705.65	3550.97
1709.51	3553.31
1713.37	3553.73
1717.23	3549.98
1721.08	3541.22
1724.94	3536.66
1728.79	3529.38
1732.64	3521.17
1736.49	3513.35
1740.33	3505.98
1744.18	3498.82
1748.02	3492.43
1751.86	3486.21
1755.7	3480.04
1759.54	3473.78
1763.38	3467.83
1767.21	3462.14
1771.04	3456.85
1774.88	3451.64
1778.7	3446.83
1782.53	3442.3
1786.36	3437.53
1790.18	3433.14
1794.01	3429.33
1797.82	3426.02
1801.64	3424.2
1805.46	3423.88
1809.28	3425.4
1813.09	3428.33
1816.9	3431.64
1820.71	3435.26
1824.52	3438
1828.33	3440.6
1832.13	3443.94
1835.94	3447.01
1839.74	3449.73
1843.54	3451.92
1847.34	3453.15
1851.14	3453.38
1854.93	3451.42
1858.72	3449.3
1862.51	3446.81
1866.3	3443.27
1870.09	3439.24
1873.88	3434.15
1877.66	3427.77
1881.45	3420.15
1885.23	3409.55
1889.01	3396.7
1892.79	3383.19
1896.56	3370.02
1900.34	3358.14
1904.11	3347.1
1907.88	3337.72
1911.65	3330.47
1915.42	3325.43
1919.18	3324.19
1922.95	3324.92
1926.71	3326.86
1930.47	3329.28
1934.23	3332.32
1937.99	3336.57
1941.74	3341.29
1945.5	3346.34
1949.25	3351.54
1953	3356.71
1956.75	3361.2
1960.5	3364.4
1964.24	3368.49
1967.99	3372.36
1971.73	3377.11
1975.47	3381.92
1979.21	3387.23
1982.95	3392.27
1986.68	3396.47
1990.42	3400.02
1994.15	3402.35
1997.88	3403.78
2001.61	3403.06
2005.34	3400.93
2009.06	3395.53
2012.79	3387.99
2016.51	3376.78
2020.23	3368.69
2023.95	3362.89
2027.67	3357.17
2031.38	3350.64
2035.1	3343.81
2038.81	3337.49
2042.52	3331.76
2046.23	3326.69
2049.94	3322.58
2053.64	3319.28
2057.35	3317.45
2061.05	3316.48
2064.75	3316.09
2068.45	3316.38
2072.15	3317.21
2075.84	3318.4
2079.54	3319.74
2083.23	3321.16
2086.92	3322.78
2090.61	3324.76
2094.3	3326.96
2097.98	3329.22
2101.67	3331.34
2105.35	3333.29
2109.03	3335.01
2112.71	3336.45
2116.39	3337.7
2120.07	3339.01
2123.74	3340.43
2127.41	3341.67
2131.09	3342.56
2134.76	3343.29
2138.42	3342.78
2142.09	3341.6
2145.76	3339.41
2149.42	3336.4
2153.08	3332.99
2156.74	3329.52
2160.4	3326.18
2164.06	3322.35
2167.71	3318.26
2171.37	3314.74
2175.02	3321.72
2178.67	3316.33
2182.32	3304.09
2185.96	3297.86
2189.61	3281.9
2193.25	3278.67
2196.9	3278.08
2200.54	3248.01
2204.17	3325.67
2207.81	3317.69
2211.45	3306.33
2215.08	3316.48
2218.72	3341.54
2222.35	3361.63
2225.98	3374.75
2229.6	3381.25
2233.23	3381.26
2236.86	3374.14
2240.48	3362.35
2244.1	3344.56
2247.72	3327.95
2251.34	3313.85
2254.96	3301.1
2258.57	3290.44
2262.18	3281.32
2265.8	3273.76
2269.41	3267.69
2273.02	3262.89
2276.62	3259.54
2280.23	3257.63
2283.83	3257.17
2287.43	3259.03
2291.04	3262.41
2294.63	3267.39
2298.23	3274.06
2301.83	3282.89
2305.42	3292.6
2309.02	3302.79
2312.61	3313.1
2316.2	3318.86
2319.79	3324.43
2323.37	3329.05
2326.96	3332.7
2330.54	3335.25
2334.12	3337.11
2337.7	3338.31
2341.28	3338.93
2344.86	3338.31
2348.44	3337.23
2352.01	3336.55
2355.58	3340.76
2359.15	3337.15
2362.72	3331.16
2366.29	3323.94
2369.86	3316.27
2373.42	3308.41
2376.99	3299.68
2380.55	3290.82
2384.11	3281.48
2387.66	3272.02
2391.22	3262.69
2394.78	3254.07
2398.33	3246.13
2401.88	3239.51
2405.44	3236.7
2408.98	3233.28
2412.53	3230.17
2416.08	3225.39
2419.62	3220.61
2423.17	3215.36
2426.71	3210.56
2430.25	3206.43
2433.79	3203.63
2437.32	3202.91
2440.86	3202.98
2444.39	3204.81
2447.92	3208.29
2451.46	3212.8
2454.98	3218.14
2458.51	3224.32
2462.04	3231.3
2465.56	3238.18
2469.09	3244.45
2472.61	3248.98
2476.13	3252.16
2479.65	3254.11
2483.16	3254.42
2486.68	3253.36
2490.19	3251.53
2493.71	3249.03
2497.22	3245.99
2500.73	3242.46
2504.23	3238.67
2507.74	3234.57
2511.24	3229.82
2514.75	3224.84
2518.25	3219.72
2521.75	3214.51
2525.25	3209.5
2528.75	3204.81
2532.24	3199.89
2535.74	3194.65
2539.23	3189.22
2542.72	3183.63
2546.21	3178.14
2549.7	3173.12
2553.19	3168.68
2556.67	3164.92
2560.15	3161.78
2563.64	3159.04
2567.12	3156.37
2570.6	3153.7
2574.07	3151.24
2577.55	3149.01
2581.02	3147.68
2584.5	3146.89
2587.97	3146.68
2591.44	3147.05
2594.91	3147.86
2598.38	3149
2601.84	3150.37
2605.3	3152.05
2608.77	3154.04
2612.23	3156.43
2615.69	3159.23
2619.15	3162.29
2622.6	3165.52
2626.06	3168.62
2629.51	3171.17
2632.96	3173.5
2636.42	3175.13
2639.86	3176.65
2643.31	3178.1
2646.76	3179.17
2650.2	3179.91
2653.65	3180.02
2657.09	3179.26
2660.53	3177.38
2663.97	3174.53
2667.41	3170.63
2670.84	3166.16
2674.28	3160.91
2677.71	3155.49
2681.14	3149.89
2684.57	3144.74
2688	3139.93
2691.43	3135.61
2694.85	3131.81
2698.28	3128.16
2701.7	3125.04
2705.12	3122.27
2708.54	3120.13
2711.96	3118.6
2715.38	3117.6
2718.79	3118.48
2722.21	3120.73
2725.62	3123.19
2729.03	3125.36
2732.44	3126.39
2735.85	3127.32
2739.25	3128.11
2742.66	3128.41
2746.06	3126.21
2749.46	3122.64
2752.87	3119.08
2756.27	3115.51
2759.66	3112.79
2763.06	3110.69
2766.46	3109.77
2769.85	3109.15
2773.24	3109.41
2776.63	3109.95
2780.02	3110.04
2783.41	3109.89
2786.8	3109.24
2790.18	3108.76
2793.56	3108.95
2796.95	3109.7
2800.33	3111.59
2803.71	3113.99
2807.08	3116.94
2810.46	3120.14
2813.83	3123.69
2817.21	3127.63
2820.58	3131.54
2823.95	3135.45
2827.32	3139.07
2830.69	3142.56
2834.05	3145.49
2837.42	3147.72
2840.78	3146.73
2844.15	3149.41
2847.51	3153.69
2850.87	3158.39
2854.22	3164.2
2857.58	3169.88
2860.93	3175.92
2864.29	3181.98
2867.64	3187.79
2870.99	3192.99
2874.34	3197.44
2877.69	3200.91
2881.03	3202.67
2884.38	3203.93
2887.72	3203.87
2891.06	3203.13
2894.41	3201.88
2897.74	3199.96
2901.08	3196.95
2904.42	3193.2
2907.75	3196.71
2911.09	3215.07
2914.42	3241.56
2917.75	3264.19
2921.08	3288.7
2924.41	3300
2927.73	3307.62
2931.06	3299.23
2934.38	3284.34
2937.71	3268.33
2941.03	3256.1
2944.35	3248.67
2947.67	3242.46
2950.98	3234.17
2954.3	3225.77
2957.61	3215.99
2960.93	3205.9
2964.23	3194.91
2967.54	3183.95
2970.85	3171.58
2974.16	3158.94
2977.47	3146.4
2980.77	3133.85
2984.07	3121.82
2987.38	3109.92
2990.68	3100.99
2993.97	3091
2997.27	3081.54
3000.57	3073.56
3003.86	3066.4
3007.16	3061.37
3010.45	3057.64
3013.74	3055.06
3017.03	3052.16
3020.31	3048.96
3023.6	3046.48
3026.89	3044.3
3030.17	3042.92
3033.45	3042.11
3036.73	3041.71
3040.01	3042.67
3043.29	3044.63
3046.57	3047.3
3049.84	3050.43
3053.12	3053.8
3056.39	3057.17
3059.66	3059.76
3062.93	3061.56
3066.2	3062.81
3069.47	3062.83
3072.73	3061.65
3075.99	3059.66
3079.26	3057.07
3082.52	3054.38
3085.78	3051.6
3089.04	3049.01
3092.29	3047.07
3095.55	3045.18
3098.81	3043.8
3102.06	3042.69
3105.31	3042.93
3108.56	3044.12
3111.81	3046.5
3115.06	3049.2
3118.31	3052.26
3121.55	3055.44
3124.8	3058.56
3128.04	3061.38
3131.28	3063.56
3134.52	3065.94
3137.76	3068.13
3141	3070.31
3144.23	3072.27
3147.47	3074.49
3150.7	3076.42
3153.93	3078.45
3157.16	3080.93
3160.39	3083.83
3163.62	3087.31
3166.84	3091.28
3170.07	3091.41
3173.29	3091.44
3176.52	3092.83
3179.74	3095.33
3182.96	3098.03
3186.18	3101.01
3189.39	3105.09
3192.61	3109.75
3195.82	3112.77
3199.04	3114.73
3202.25	3115.79
3205.46	3116.85
3208.67	3116.92
3211.87	3118.21
3215.08	3119.82
3218.28	3122
3221.49	3123.25
3224.69	3124.99
3227.89	3127.02
3231.09	3127.04
3234.29	3126.61
3237.49	3125.62
3240.68	3124.51
3243.88	3122.56
3247.07	3119.84
3250.26	3117.9
3253.45	3116.59
3256.64	3116.36
3259.83	3115.89
3263.02	3114.41
3266.2	3115.35
3269.39	3116.5
3272.57	3120.59
3275.75	3132.96
3278.93	3133.77
3282.11	3139.63
3285.29	3146.84
3288.46	3160.1
3291.64	3183.17
3294.81	3212.5
3297.98	3254.05
3301.15	3316.13
3304.32	3402.17
3307.49	3518.95
3310.66	3657.86
3313.82	3821.63
3316.99	4019.8
3320.15	4259.5
3323.31	4578.21
3326.47	4933.38
3329.63	5326.57
3332.79	5748.96
3335.95	6198.46
3339.1	6722.03
3342.26	7258.54
3345.41	7711.8
3348.56	8115.16
3351.71	8484.11
3354.86	8502.13
3358	8512
3361.15	8217.31
3364.3	7865.95
3367.44	7462.25
3370.58	6969.09
3373.72	6461.38
3376.86	6075.97
3380	5849.02
3383.14	5586.27
3386.27	5405.53
3389.41	5274.36
3392.54	5153.42
3395.67	5042.51
3398.8	4927.1
3401.93	4801.05
3405.06	4637.21
3408.19	4502.46
3411.31	4300.35
3414.44	4095.68
3417.56	3886.64
3420.68	3686.95
3423.8	3503.57
3426.92	3350.61
3430.04	3258.02
3433.16	3182.56
3436.27	3121.41
3439.39	3089.56
3442.5	3070.2
3445.61	3058.76
3448.72	3054.01
3451.83	3043.93
3454.94	3039.82
3458.04	3039.04
3461.15	3040.81
3464.25	3043.03
3467.36	3042.7
3470.46	3044.46
3473.56	3041.69
3476.66	3034.37
3479.75	3031.74
3482.85	3029.09
3485.94	3026.38
3489.04	3022.14
3492.13	3016.03
3495.22	3007.37
3498.31	2998.61
3501.4	2988.62
3504.49	2975.05
3507.57	2963.28
3510.66	2951.01
3513.74	2938.71
3516.82	2927.87
3519.91	2917.5
3522.99	2905.81
3526.07	2895.19
3529.14	2886.83
3532.22	2880.18
3535.29	2874.89
3538.37	2870.68
3541.44	2867.84
3544.51	2865.67
3547.58	2863.51
3550.65	2861.48
3553.72	2855.14
3556.78	2857.46
3559.85	2862.76
3562.91	2865.53
3565.98	2866.3
3569.04	2864.31
3572.1	2861.62
3575.16	2854.92
3578.21	2845.67
3581.27	2831.34
3584.32	2816
3587.38	2798.89
3590.43	2782.59
3593.48	2771.01
3596.53	2762.17
3599.58	2752.34
3602.63	2747.35
3605.67	2740.31
3608.72	2735.69
3611.76	2730.15
3614.81	2725.81
3617.85	2720.82
3620.89	2715.59
3623.93	2711.28
3626.97	2707.19
3630	2700.75
3633.04	2694.05
3636.07	2684.45
3639.11	2677.12
3642.14	2669.7
3645.17	2663.21
3648.2	2657.93
3651.22	2653.16
3654.25	2647.58
3657.28	2640.93
3660.3	2633.27
3663.32	2628.09
3666.35	2625.02
3669.37	2621.72
3672.39	2618.63
3675.4	2616.65
3678.42	2614.07
3681.44	2610.68
3684.45	2609.21
3687.47	2607.18
3690.48	2605.19
3693.49	2601.32
3696.5	2598.53
3699.51	2595.44
3702.52	2592.71
3705.52	2589.82
3708.53	2585.61
3711.53	2581.53
3714.53	2577.54
3717.53	2576.67
3720.53	2574.29
3723.53	2572.86
3726.53	2571.89
3729.53	2570.54
3732.52	2569.55
3735.52	2569.01
3738.51	2566.32
3741.5	2563.66
3744.49	2562.58
3747.48	2561.77
3750.47	2560.95
3753.46	2558.66
3756.44	2557.5
3759.43	2555.65
3762.41	2553.4
3765.39	2550.5
3768.37	2546.58
3771.35	2542.4
3774.33	2538.53
3777.31	2535.97
3780.29	2532.99
3783.26	2529.27
3786.23	2526.44
3789.21	2524.44
3792.18	2522.03
3795.15	2520.4
3798.12	2518.87
3801.09	2515.66
3804.05	2516.32
3807.02	2523.28
3809.98	2519.83
3812.95	2515.82
3815.91	2511.12
3818.87	2504.21
3821.83	2498.42
3824.79	2491.87
3827.74	2485.64
3830.7	2480.55
3833.66	2476.3
3836.61	2473.45
3839.56	2476.61
3842.51	2479
3845.46	2487.17
3848.41	2491.5
3851.36	2494.81
3854.31	2497.14
3857.25	2498.15
3860.2	2498.71
3863.14	2495.83
3866.08	2494.79
3869.02	2485.34
3871.96	2483.09
3874.9	2481.2
3877.84	2479.29
3880.77	2477.48
3883.71	2475.05
3886.64	2473.47
3889.58	2472.17
3892.51	2472.43
3895.44	2469.3
3898.37	2466.82
3901.29	2463.98
3904.22	2463.28
3907.15	2462.16
3910.07	2459.51
3913	2455.87
3915.92	2451.19
3918.84	2445.88
3921.76	2440.63
3924.68	2436.33
3927.6	2432.72
3930.51	2430.17
3933.43	2426.6
3936.34	2422.86
3939.26	2421.66
3942.17	2419.39
3945.08	2419.44
3947.99	2419.65
3950.9	2423.64
3953.8	2425.56
3956.71	2428.63
3959.61	2430.86
3962.52	2430.72
3965.42	2428.51
3968.32	2425.39
3971.22	2416.18
3974.12	2409.98
3977.02	2403.91
3979.92	2397.51
3982.81	2393.82
3985.71	2390.26
3988.6	2394.92
3991.49	2393.52
3994.38	2389.24
3997.27	2384.61
4000.16	2379.93
4003.05	2368.59
4005.94	2360.52
4008.82	2355.03
4011.71	2352.31
4014.59	2351.39
4017.47	2355.4
4020.35	2359.34
4023.23	2363.57
4026.11	2364.96
4028.99	2366.78
4031.87	2365.92
4034.74	2365.41
4037.62	2356.64
4040.49	2353.25
4043.36	2350.95
4046.23	2350.14
4049.1	2348.16
4051.97	2346.06
4054.84	2344.03
4057.7	2341.78
4060.57	2340.06
4063.43	2338.6
4066.3	2336.16
4069.16	2334.47
4072.02	2332.14
4074.88	2330.2
4077.74	2327.85
4080.59	2327.16
4083.45	2325.47
4086.31	2322.71
4089.16	2319.08
4092.01	2315.61
4094.86	2313.1
4097.72	2311.56
4100.56	2311.76
4103.41	2311.75
4106.26	2312.01
4109.11	2313.04
4111.95	2314.58
4114.8	2315.65
4117.64	2318.17
4120.48	2322.75
4123.32	2324.97
4126.16	2327.98
4129	2329.6
4131.84	2333.67
4134.67	2333.69
4137.51	2330
4140.34	2328.43
4143.17	2329.88
4146.01	2336.1
4148.84	2335.91
4151.67	2337.6
4154.5	2334.31
4157.32	2323.82
4160.15	2316.64
4162.97	2313.13
4165.8	2312.36
4168.62	2310.24
4171.44	2305.5
4174.26	2302.17
4177.08	2298.78
4179.9	2297.48
4182.72	2299.28
4185.54	2301.18
4188.35	2305.06
4191.17	2308.44
4193.98	2311.3
4196.79	2314.48
4199.6	2316.82
4202.41	2319.62
4205.22	2320.62
4208.03	2320.15
4210.83	2318.31
4213.64	2314.55
4216.44	2311.56
4219.25	2307.07
4222.05	2301.65
4224.85	2295.04
4227.65	2285.81
4230.45	2278.81
4233.25	2270.21
4236.04	2263.86
4238.84	2259.46
4241.64	2255.97
4244.43	2254.83
4247.22	2253.36
4250.01	2251.79
4252.8	2249.84
4255.59	2248.48
4258.38	2246.36
4261.17	2243.86
4263.95	2241.36
4266.74	2238.31
4269.52	2235.59
4272.31	2232.44
4275.09	2229.05
4277.87	2225.54
4280.65	2224.2
4283.42	2222.95
4286.2	2220.33
4288.98	2217.99
4291.75	2214.08
4294.53	2211.92
4297.3	2209.89
4300.07	2207.39
4302.84	2201.42
4305.61	2204.17
4308.38	2207.23
4311.15	2212.72
4313.92	2216.81
4316.68	2219.91
4319.45	2221.71
4322.21	2220.11
4324.97	2209.34
4327.73	2198.33
4330.49	2191.22
4333.25	2184.33
4336.01	2177.02
4338.77	2172.83
4341.52	2167.22
4344.28	2159.9
4347.03	2152.73
4349.79	2146.35
4352.54	2141.03
4355.29	2139.26
4358.04	2137.24
4360.79	2135.72
4363.53	2135.05
4366.28	2135.27
4369.03	2136.74
4371.77	2138.41
4374.51	2139.44
4377.26	2140.48
4380	2138.81
4382.74	2136.27
4385.48	2134.4
4388.22	2131.42
4390.95	2127.76
4393.69	2124.54
4396.42	2120.5
4399.16	2116.48
4401.89	2113.02
4404.62	2110.88
4407.35	2108.82
4410.08	2107.21
4412.81	2105.63
4415.54	2106.35
4418.27	2107.71
4420.99	2108.06
4423.72	2107.98
4426.44	2107.52
4429.16	2107.63
4431.88	2105.93
4434.6	2103.64
4437.32	2101.83
4440.04	2099.34
4442.76	2097.37
4445.47	2094.1
4448.19	2090.21
4450.9	2087.54
4453.62	2084.25
4456.33	2080.51
4459.04	2078.19
4461.75	2077.15
4464.46	2078.74
4467.17	2081.52
4469.87	2082.34
4472.58	2083.98
4475.28	2085.06
4477.99	2085.54
4480.69	2085.98
4483.39	2085.36
4486.09	2081.97
4488.79	2079.18
4491.49	2074.27
4494.19	2068.99
4496.89	2065.52
4499.58	2062.31
4502.27	2057.55
4504.97	2054.32
4507.66	2051.73
4510.35	2048.51
4513.04	2046.6
4515.73	2044.5
4518.42	2042.2
4521.11	2040.53
4523.79	2037.37
4526.48	2035.41
4529.16	2034.35
4531.85	2032.38
4534.53	2031.24
4537.21	2029.61
4539.89	2028.3
4542.57	2026.17
4545.25	2024.21
4547.92	2023.11
4550.6	2022.39
4553.28	2022.04
4555.95	2023.05
4558.62	2023.01
4561.3	2022.54
4563.97	2021.35
4566.64	2020.27
4569.31	2019.69
4571.97	2017.7
4574.64	2014.78
4577.31	2011.65
4579.97	2009.78
4582.64	2007.91
4585.3	2004.91
4587.96	2001.17
4590.62	1997.37
4593.28	1993.19
4595.94	1989.26
4598.6	1985.57
4601.26	1981.32
4603.91	1978.55
4606.57	1976.07
4609.22	1974.59
4611.87	1973.16
4614.53	1972.53
4617.18	1971.06
4619.83	1970.66
4622.48	1967.57
4625.12	1963.15
4627.77	1960.84
4630.42	1957.84
4633.06	1954.38
4635.71	1950.26
4638.35	1944.93
4640.99	1940.75
4643.63	1937.77
4646.27	1935.39
4648.91	1933.23
4651.55	1930.55
4654.18	1928.42
4656.82	1926.78
4659.46	1924.09
4662.09	1921.27
4664.72	1918.24
4667.36	1914.49
4669.99	1911.21
4672.62	1907.99
4675.24	1906.33
4677.87	1904.78
4680.5	1904.14
4683.13	1903.21
4685.75	1902.06
4688.38	1899.5
4691	1897.37
4693.62	1894.05
4696.24	1890.18
4698.86	1888.15
4701.48	1885.78
4704.1	1884.69
4706.72	1883.34
4709.33	1880.82
4711.95	1878.6
4714.56	1877.16
4717.18	1876.5
4719.79	1875.32
4722.4	1876.38
4725.01	1877.16
4727.62	1878.75
4730.23	1879.16
4732.84	1879.17
4735.44	1878.87
4738.05	1876.68
4740.65	1875.14
4743.25	1873.29
4745.86	1868.6
4748.46	1865.55
4751.06	1862.69
4753.66	1860.98
4756.26	1858.82
4758.86	1856.09
4761.45	1854.17
4764.05	1853.01
4766.64	1852.59
4769.24	1849.34
4771.83	1846.41
4774.42	1844.38
4777.01	1842.66
4779.6	1841.79
4782.19	1839.76
4784.78	1837.4
4787.37	1834.1
4789.95	1830.27
4792.54	1827.68
4795.12	1823.51
4797.71	1820.06
4800.29	1816.9
4802.87	1814.73
4805.45	1811.95
4808.03	1808.83
4810.61	1805.48
4813.18	1802.64
4815.76	1799.93
4818.34	1797.57
4820.91	1796.2
4823.48	1794.94
4826.06	1793.96
4828.63	1791.71
4831.2	1789.45
4833.77	1787.72
4836.34	1786.64
4838.91	1785.88
4841.47	1786.01
4844.04	1786.07
4846.6	1785.14
4849.17	1784.53
4851.73	1782.89
4854.29	1780.25
4856.85	1778.19
4859.41	1777.05
4861.97	1777.02
4864.53	1777.77
4867.09	1778.9
4869.65	1779.67
4872.2	1779.08
4874.76	1778.92
4877.31	1777.53
4879.86	1775.95
4882.41	1774.87
4884.96	1772.92
4887.51	1769.86
4890.06	1765.82
4892.61	1762.25
4895.16	1757.78
4897.7	1753.83
4900.25	1749.51
4902.79	1747.47
4905.34	1745.57
4907.88	1744.85
4910.42	1744.26
4912.96	1744.91
4915.5	1745.3
4918.04	1745.06
4920.58	1743.8
4923.11	1741.27
4925.65	1739.44
4928.18	1737.03
4930.72	1734.05
4933.25	1729.71
4935.78	1724.32
4938.31	1720.15
4940.84	1715.4
4943.37	1711.51
4945.9	1708.45
4948.43	1706.48
4950.95	1704.97
4953.48	1704.52
4956	1702.28
4958.53	1700.44
4961.05	1698.87
4963.57	1695.53
4966.09	1692.78
4968.61	1689.6
4971.13	1686.95
4973.65	1685.4
4976.17	1684.47
4978.68	1682.69
4981.2	1681.47
4983.71	1682.67
4986.23	1684.41
4988.74	1685.64
4991.25	1686.18
4993.76	1687.6
4996.27	1686.41
4998.78	1685.99
5001.29	1684.83
5003.79	1682.96
5006.3	1678.89
5008.8	1674.33
5011.31	1669.53
5013.81	1664.62
5016.31	1662.21
5018.82	1659.3
5021.32	1655.73
5023.82	1652.91
5026.31	1650.01
5028.81	1647.73
5031.31	1644.98
5033.81	1643.29
5036.3	1642.52
5038.79	1642.2
5041.29	1641.56
5043.78	1641.09
5046.27	1639.56
5048.76	1636.91
5051.25	1635.14
5053.74	1632.23
5056.23	1629.79
5058.71	1627.87
5061.2	1626.18
5063.69	1623.79
5066.17	1622.44
5068.65	1620.71
5071.13	1618.24
5073.62	1616.39
5076.1	1614.1
5078.57	1611.85
5081.05	1609.73
5083.53	1609.67
5086.01	1609.43
5088.48	1609.92
5090.96	1609.71
5093.43	1609.75
5095.91	1610.08
5098.38	1611.7
5100.85	1612.76
5103.32	1613.73
5105.79	1613.1
5108.26	1611.91
5110.73	1608.73
5113.19	1603.98
5115.66	1600.18
5118.12	1596.61
5120.59	1591.79
5123.05	1587.03
5125.52	1582.53
5127.98	1577.29
5130.44	1571.68
5132.9	1567.56
5135.35	1563.49
5137.81	1560.17
5140.27	1556.72
5142.73	1553.99
5145.18	1551.28
5147.64	1547.37
5150.09	1544.9
5152.54	1542.76
5154.99	1543
5157.44	1543.55
5159.89	1551.62
5162.34	1548.26
5164.79	1541.89
5167.24	1536.23
5169.69	1528.26
5172.13	1524.08
5174.57	1529.02
5177.02	1530.25
5179.46	1533.1
5181.9	1535.2
5184.34	1536.52
5186.78	1533.29
5189.22	1530.98
5191.66	1524.97
5194.1	1521.84
5196.54	1520.28
5198.97	1518.45
5201.41	1518.15
5203.84	1516.98
5206.27	1514.67
5208.71	1512.47
5211.14	1510.27
5213.57	1508.14
5216	1506.73
5218.42	1503.64
5220.85	1502.51
5223.28	1502.21
5225.71	1502.87
5228.13	1502.85
5230.56	1501.96
5232.98	1499.9
5235.4	1496.5
5237.82	1494.73
5240.24	1494.13
5242.66	1493.73
5245.08	1493.91
5247.5	1493.56
5249.92	1492.21
5252.33	1489.72
5254.75	1485.97
5257.17	1484.29
5259.58	1485.22
5261.99	1485.19
5264.4	1484.02
5266.82	1482.1
5269.23	1480.47
5271.64	1478.38
5274.04	1476.33
5276.45	1475.56
5278.86	1472.86
5281.26	1469.23
5283.67	1466.24
5286.07	1461.37
5288.48	1457.19
5290.88	1450.14
5293.28	1446.36
5295.68	1444.87
5298.08	1441.74
